# Created by:        SpecsLab Prodigy, Version 4.60.2-r85849 
#
# XY-Serializer Export Settings:
#   Comment Prefix:           #
#   Output meta data:         yes
#   Energy Axis:              Binding Energy
#   Count Rate:               Counts per Second
#   Separate Scan Data:       no
#   Separate Channel Data:    no
#   External Channel Data:    yes
#   Transmission Function:    no
#   ErrorBar:                 no
#   Operation Results:        yes
#   Time Zone Format:         UTC
#
# Group:             Spectrum Group
#
# Region:            C1s
# Acquisition Date:  09/01/22 23:29:08 UTC
# Analysis Method:   XPS
# Analyzer:          Phoibos 100 R6
# Analyzer Lens:     LargeArea:1.5kV
# Analyzer Slit:     1:0.2x20\B:open
# Scan Mode:         FixedAnalyzerTransmission
# Curves/Scan:       1
# Values/Curve:      151
# Dwell Time:        0.8
# Excitation Energy: 1486.61
# Binding Energy:    295
# Pass Energy:       30
# Bias Voltage:      90
# Detector Voltage:  2600
# Eff. Workfunction: 4.309
# Source:            X-Ray Dummy
# Comment:           
#
# Cycle: 0
# Number of Scans: 50
#
# Cycle: 0, Curve: 0
# Acquisition Date: 09/01/22 23:29:08 UTC
#
# ColumnLabels: energy counts/s
#
295  599.975
294.9  608.275
294.8  602.15
294.7  606.875
294.6  602.075
294.5  602.925
294.4  602.775
294.3  605
294.2  601.775
294.1  604.075
294  600.05
293.9  608.85
293.8  605.15
293.7  602.7
293.6  606.675
293.5  608.55
293.4  595.45
293.3  606.375
293.2  606.75
293.1  608.725
293  613.725
292.9  602.05
292.8  601.375
292.7  609.95
292.6  603.95
292.5  609.4
292.4  602.15
292.3  612.175
292.2  617.65
292.1  611.425
292  612.25
291.9  615.675
291.8  615.4
291.7  624.65
291.6  624.075
291.5  624.25
291.4  625.35
291.3  621.875
291.2  636.25
291.1  636.7
291  635.075
290.9  644.775
290.8  649.35
290.7  652.4
290.6  659.025
290.5  668.8
290.4  676.325
290.3  687.125
290.2  691.175
290.1  696.975
290  701.55
289.9  715.35
289.8  715.675
289.7  720.025
289.6  742.625
289.5  748.55
289.4  757.35
289.3  754.025
289.2  758.275
289.1  758.3
289  770.275
288.9  771.325
288.8  781.325
288.7  780.25
288.6  781.75
288.5  782.925
288.4  792.975
288.3  790.1
288.2  793.425
288.1  789.875
288  800.65
287.9  797.225
287.8  797.35
287.7  788.8
287.6  791.175
287.5  793.525
287.4  779.35
287.3  770.35
287.2  759.875
287.1  749.6
287  749.525
286.9  743.95
286.8  725.325
286.7  711.325
286.6  704.725
286.5  691.175
286.4  690.55
286.3  680.525
286.2  680.725
286.1  673
286  661.525
285.9  659.25
285.8  653.475
285.7  651.225
285.6  645.75
285.5  640.325
285.4  641.575
285.3  633.625
285.2  624.175
285.1  632.95
285  625.4
284.9  614.425
284.8  621.05
284.7  610.55
284.6  614.15
284.5  610.975
284.4  613.225
284.3  611.2
284.2  611.05
284.1  616.75
284  608.975
283.9  604.2
283.8  606.6
283.7  617.65
283.6  609.875
283.5  601.4
283.4  604.35
283.3  611.1
283.2  605.675
283.1  603
283  606.4
282.9  610.9
282.8  610.225
282.7  603.5
282.6  604.075
282.5  607.1
282.4  602
282.3  599.475
282.2  600.475
282.1  605
282  603.025
281.9  607.05
281.8  593.75
281.7  607.25
281.6  602
281.5  605.325
281.4  604.675
281.3  600.05
281.2  597.525
281.1  595.5
281  600.325
280.9  598.625
280.8  601.8
280.7  602.375
280.6  594.175
280.5  595.725
280.4  601.425
280.3  596.95
280.2  597.325
280.1  604.225
280  602.725

# Region:            Ba3d
# Acquisition Date:  09/01/22 21:35:06 UTC
# Analysis Method:   XPS
# Analyzer:          Phoibos 100 R6
# Analyzer Lens:     LargeArea:1.5kV
# Analyzer Slit:     1:0.2x20\B:open
# Scan Mode:         FixedAnalyzerTransmission
# Curves/Scan:       1
# Values/Curve:      121
# Dwell Time:        0.8
# Excitation Energy: 1486.61
# Binding Energy:    789
# Pass Energy:       30
# Bias Voltage:      90
# Detector Voltage:  2600
# Eff. Workfunction: 4.309
# Source:            X-Ray Dummy
# Comment:           
#
# Cycle: 0
# Number of Scans: 20
#
# Cycle: 0, Curve: 0
# Acquisition Date: 09/01/22 21:35:06 UTC
#
# ColumnLabels: energy counts/s
#
789  1727.5
788.9  1703.8125
788.8  1713.25
788.7  1705.25
788.6  1707.5
788.5  1709
788.4  1700.125
788.3  1721.1875
788.2  1719.625
788.1  1712.9375
788  1726.3125
787.9  1711.4375
787.8  1709.875
787.7  1703.5
787.6  1718.6875
787.5  1717.625
787.4  1713.75
787.3  1710.8125
787.2  1707.3125
787.1  1702.4375
787  1718.3125
786.9  1710.8125
786.8  1692
786.7  1711.125
786.6  1705.0625
786.5  1705.25
786.4  1714
786.3  1706.375
786.2  1722.1875
786.1  1711.375
786  1710.0625
785.9  1725.375
785.8  1679.375
785.7  1693.375
785.6  1710.25
785.5  1726.6875
785.4  1716.1875
785.3  1703.5
785.2  1707.3125
785.1  1714.1875
785  1713.75
784.9  1698.6875
784.8  1712.4375
784.7  1701.875
784.6  1714.3125
784.5  1706.9375
784.4  1715.1875
784.3  1702.75
784.2  1690.125
784.1  1697.0625
784  1725.6875
783.9  1695.1875
783.8  1688.5
783.7  1691.9375
783.6  1700.8125
783.5  1702.5625
783.4  1715.5
783.3  1707.4375
783.2  1715.3125
783.1  1706.875
783  1712.375
782.9  1711.8125
782.8  1706.75
782.7  1707.75
782.6  1726.0625
782.5  1732
782.4  1722.125
782.3  1717.625
782.2  1699.3125
782.1  1709.375
782  1726.375
781.9  1721.4375
781.8  1710.6875
781.7  1727.1875
781.6  1722.9375
781.5  1735
781.4  1717.0625
781.3  1720.25
781.2  1745
781.1  1749.25
781  1737.75
780.9  1716.9375
780.8  1724.5
780.7  1726.4375
780.6  1734.375
780.5  1728.875
780.4  1740.75
780.3  1729.9375
780.2  1714.3125
780.1  1706.75
780  1706.25
779.9  1720.125
779.8  1714.8125
779.7  1709.5
779.6  1708.8125
779.5  1705.3125
779.4  1711.1875
779.3  1694.3125
779.2  1705.125
779.1  1702.0625
779  1683.3125
778.9  1682.5625
778.8  1673.5625
778.7  1700.5625
778.6  1693.6875
778.5  1692.875
778.4  1693.1875
778.3  1687.5625
778.2  1682.5625
778.1  1687.9375
778  1689.1875
777.9  1691.25
777.8  1686.75
777.7  1691.3125
777.6  1672.0625
777.5  1693.1875
777.4  1668.3125
777.3  1695.4375
777.2  1687.25
777.1  1671.625
777  1680.375

# Region:            Cl2p
# Acquisition Date:  09/01/22 21:36:37 UTC
# Analysis Method:   XPS
# Analyzer:          Phoibos 100 R6
# Analyzer Lens:     LargeArea:1.5kV
# Analyzer Slit:     1:0.2x20\B:open
# Scan Mode:         FixedAnalyzerTransmission
# Curves/Scan:       1
# Values/Curve:      111
# Dwell Time:        0.8
# Excitation Energy: 1486.61
# Binding Energy:    207
# Pass Energy:       30
# Bias Voltage:      90
# Detector Voltage:  2600
# Eff. Workfunction: 4.309
# Source:            X-Ray Dummy
# Comment:           
#
# Cycle: 0
# Number of Scans: 20
#
# Cycle: 0, Curve: 0
# Acquisition Date: 09/01/22 21:36:37 UTC
#
# ColumnLabels: energy counts/s
#
207  531.25
206.9  542.1875
206.8  543.9375
206.7  546.9375
206.6  544.6875
206.5  545.25
206.4  541.8125
206.3  548.6875
206.2  538.875
206.1  549.375
206  535.375
205.9  542.375
205.8  545.5625
205.7  542.8125
205.6  553.5625
205.5  547.6875
205.4  545
205.3  553.125
205.2  551.75
205.1  544.1875
205  546.5625
204.9  547.5625
204.8  540.75
204.7  541.25
204.6  554.5
204.5  547.8125
204.4  544.4375
204.3  540.9375
204.2  554.25
204.1  548.25
204  558.1875
203.9  545.75
203.8  550
203.7  575.375
203.6  544
203.5  543.5625
203.4  559.5
203.3  551.1875
203.2  561.75
203.1  554.6875
203  545.5
202.9  555.5625
202.8  564.1875
202.7  559.5625
202.6  557.125
202.5  552.5
202.4  563.75
202.3  554.9375
202.2  557.125
202.1  546
202  550.3125
201.9  561.875
201.8  547.6875
201.7  542.0625
201.6  540.3125
201.5  538.4375
201.4  530.25
201.3  545.5
201.2  539.875
201.1  541.1875
201  539.9375
200.9  555.3125
200.8  542.9375
200.7  549.375
200.6  539.875
200.5  539.5
200.4  537.8125
200.3  540.375
200.2  541.3125
200.1  536.25
200  547.5
199.9  545.875
199.8  550.0625
199.7  548.1875
199.6  546.1875
199.5  540.875
199.4  538.4375
199.3  539.1875
199.2  538.3125
199.1  545.375
199  550.8125
198.9  546.375
198.8  538.9375
198.7  545.125
198.6  535
198.5  535.6875
198.4  545.625
198.3  553.6875
198.2  554.3125
198.1  552.1875
198  542.6875
197.9  549.8125
197.8  534
197.7  549.9375
197.6  537.75
197.5  537.125
197.4  546.5
197.3  539.875
197.2  535
197.1  535.9375
197  534.5625
196.9  541.1875
196.8  548.4375
196.7  538.875
196.6  537.125
196.5  546.125
196.4  543.625
196.3  539.25
196.2  540.125
196.1  546.8125
196  537.5625

# Region:            O1s
# Acquisition Date:  09/01/22 21:38:31 UTC
# Analysis Method:   XPS
# Analyzer:          Phoibos 100 R6
# Analyzer Lens:     LargeArea:1.5kV
# Analyzer Slit:     1:0.2x20\B:open
# Scan Mode:         FixedAnalyzerTransmission
# Curves/Scan:       1
# Values/Curve:      141
# Dwell Time:        0.8
# Excitation Energy: 1486.61
# Binding Energy:    541
# Pass Energy:       30
# Bias Voltage:      90
# Detector Voltage:  2600
# Eff. Workfunction: 4.309
# Source:            X-Ray Dummy
# Comment:           
#
# Cycle: 0
# Number of Scans: 20
#
# Cycle: 0, Curve: 0
# Acquisition Date: 09/01/22 21:38:31 UTC
#
# ColumnLabels: energy counts/s
#
541  933.0625
540.9  940.4375
540.8  946.8125
540.7  935.6875
540.6  949.375
540.5  948.375
540.4  972.6875
540.3  955.75
540.2  964.75
540.1  981.125
540  987
539.9  991.8125
539.8  1002.125
539.7  1002.5625
539.6  1018.5625
539.5  1031.0625
539.4  1045.125
539.3  1052.875
539.2  1055.9375
539.1  1087.375
539  1083.5625
538.9  1114
538.8  1139.3125
538.7  1154.125
538.6  1185.875
538.5  1203
538.4  1247.3125
538.3  1304.75
538.2  1345.5625
538.1  1415
538  1463.8125
537.9  1559.75
537.8  1675.125
537.7  1782.125
537.6  1943.9375
537.5  2096
537.4  2278.8125
537.3  2505.3125
537.2  2756.125
537.1  3052.125
537  3297.4375
536.9  3624.8125
536.8  3967
536.7  4311.3125
536.6  4668.6875
536.5  5053.875
536.4  5434.3125
536.3  5790.625
536.2  6115.8125
536.1  6392.4375
536  6651.875
535.9  6836.8125
535.8  6977.5
535.7  7015.6875
535.6  7026.0625
535.5  6956.125
535.4  6808.5
535.3  6601.5
535.2  6298.0625
535.1  6044.1875
535  5676.9375
534.9  5305.4375
534.8  4942.125
534.7  4529.6875
534.6  4160.75
534.5  3797.875
534.4  3451.0625
534.3  3145.75
534.2  2831.1875
534.1  2566.0625
534  2350.125
533.9  2149.5625
533.8  1964.375
533.7  1791.125
533.6  1685.6875
533.5  1535.4375
533.4  1463.25
533.3  1375.0625
533.2  1300.9375
533.1  1236.9375
533  1185.9375
532.9  1162.3125
532.8  1126
532.7  1084.25
532.6  1073.1875
532.5  1052.75
532.4  1028.625
532.3  1026.25
532.2  1006.25
532.1  992.75
532  991.25
531.9  984.375
531.8  970.3125
531.7  965.375
531.6  944.875
531.5  957.1875
531.4  944.0625
531.3  933.5625
531.2  940.875
531.1  935.875
531  933.8125
530.9  912.625
530.8  922.625
530.7  916.875
530.6  898.125
530.5  914.625
530.4  890.3125
530.3  887.375
530.2  872.125
530.1  877.375
530  869.3125
529.9  855.5
529.8  843.375
529.7  850.125
529.6  850.625
529.5  852.8125
529.4  843.6875
529.3  832.3125
529.2  832.375
529.1  826.9375
529  816.4375
528.9  803.9375
528.8  833.4375
528.7  824.5
528.6  817.625
528.5  804.125
528.4  817
528.3  832.625
528.2  815.6875
528.1  830.1875
528  836.75
527.9  843.5625
527.8  849.1875
527.7  868.1875
527.6  886.4375
527.5  897.4375
527.4  904.3125
527.3  931.8125
527.2  940.1875
527.1  961
527  975.875

# Region:            N1s
# Acquisition Date:  09/02/22 00:52:38 UTC
# Analysis Method:   XPS
# Analyzer:          Phoibos 100 R6
# Analyzer Lens:     LargeArea:1.5kV
# Analyzer Slit:     1:0.2x20\B:open
# Scan Mode:         FixedAnalyzerTransmission
# Curves/Scan:       1
# Values/Curve:      121
# Dwell Time:        0.8
# Excitation Energy: 1486.61
# Binding Energy:    409
# Pass Energy:       30
# Bias Voltage:      90
# Detector Voltage:  2600
# Eff. Workfunction: 4.309
# Source:            X-Ray Dummy
# Comment:           
#
# Cycle: 0
# Number of Scans: 100
#
# Cycle: 0, Curve: 0
# Acquisition Date: 09/02/22 00:52:38 UTC
#
# ColumnLabels: energy counts/s
#
409  644.075
408.9  649.875
408.8  645.0125
408.7  643.425
408.6  650
408.5  649.7
408.4  649
408.3  647.8
408.2  651.0375
408.1  646.7375
408  646.15
407.9  643.775
407.8  650.5375
407.7  651.9125
407.6  650.075
407.5  645.2625
407.4  648.7875
407.3  650.4125
407.2  654.425
407.1  651.625
407  648.8625
406.9  652.9875
406.8  657.675
406.7  653.625
406.6  656.1375
406.5  655.85
406.4  654.5
406.3  653.925
406.2  653.725
406.1  659.175
406  656.225
405.9  661.8875
405.8  655.2625
405.7  652.975
405.6  659.375
405.5  659.475
405.4  660.0125
405.3  668.3125
405.2  662.65
405.1  666
405  662.2875
404.9  669.275
404.8  672.4875
404.7  668.975
404.6  666.425
404.5  673.65
404.4  671.6
404.3  675.45
404.2  675.975
404.1  675.925
404  675.025
403.9  680.7875
403.8  683.15
403.7  679.2625
403.6  683.2125
403.5  681.875
403.4  684.175
403.3  684.95
403.2  687.8375
403.1  686.225
403  690.3875
402.9  689.65
402.8  687.775
402.7  686.825
402.6  688.65
402.5  685.2
402.4  690.025
402.3  692.2375
402.2  686.4
402.1  687.0875
402  692.475
401.9  690.275
401.8  686.125
401.7  685.8375
401.6  683.825
401.5  678.575
401.4  686.5625
401.3  687.6125
401.2  677.675
401.1  680.9
401  678.15
400.9  680.0875
400.8  677.225
400.7  673.8875
400.6  675.575
400.5  670.2875
400.4  666.8
400.3  667.5625
400.2  667.75
400.1  665.45
400  668.4625
399.9  663.4125
399.8  665.575
399.7  657.8125
399.6  656.45
399.5  661.0375
399.4  652.5625
399.3  657.3
399.2  662.35
399.1  658.55
399  661.3125
398.9  655.4375
398.8  655.15
398.7  657.1
398.6  656.225
398.5  659.2125
398.4  657.55
398.3  654.4625
398.2  660.55
398.1  650.2375
398  653.5
397.9  657.8375
397.8  658.15
397.7  657.0625
397.6  658.9375
397.5  654.1875
397.4  655.3125
397.3  654.45
397.2  653.525
397.1  659.275
397  660.2

# Region:            Si2p
# Acquisition Date:  09/01/22 20:56:24 UTC
# Analysis Method:   XPS
# Analyzer:          Phoibos 100 R6
# Analyzer Lens:     LargeArea:1.5kV
# Analyzer Slit:     1:0.2x20\B:open
# Scan Mode:         FixedAnalyzerTransmission
# Curves/Scan:       1
# Values/Curve:      111
# Dwell Time:        0.8
# Excitation Energy: 1486.61
# Binding Energy:    112
# Pass Energy:       30
# Bias Voltage:      90
# Detector Voltage:  2600
# Eff. Workfunction: 4.309
# Source:            X-Ray Dummy
# Comment:           
#
# Cycle: 0
# Number of Scans: 15
#
# Cycle: 0, Curve: 0
# Acquisition Date: 09/01/22 20:56:24 UTC
#
# ColumnLabels: energy counts/s
#
112  342.5
111.9  345.08333
111.8  343
111.7  345.41667
111.6  343.33333
111.5  343.41667
111.4  342.83333
111.3  350.25
111.2  351.33333
111.1  346.5
111  352.66667
110.9  350.83333
110.8  352.16667
110.7  356.75
110.6  360.58333
110.5  348.75
110.4  361.66667
110.3  356.33333
110.2  354.66667
110.1  359.58333
110  352.41667
109.9  361.25
109.8  365.25
109.7  369.5
109.6  371.91667
109.5  381.33333
109.4  380.75
109.3  379.41667
109.2  397.41667
109.1  389.33333
109  414.16667
108.9  403.75
108.8  420
108.7  441.08333
108.6  460.08333
108.5  471.25
108.4  489.91667
108.3  515.16667
108.2  546.58333
108.1  583.16667
108  635.91667
107.9  663.25
107.8  711.75
107.7  755.41667
107.6  805.5
107.5  861
107.4  925.08333
107.3  966.25
107.2  1021.3333
107.1  1089.8333
107  1134.5
106.9  1161.1667
106.8  1204.25
106.7  1240.25
106.6  1242.5
106.5  1264.0833
106.4  1262.1667
106.3  1266
106.2  1252.8333
106.1  1217.5833
106  1174
105.9  1147.1667
105.8  1082.5
105.7  1058.75
105.6  1005.25
105.5  929.16667
105.4  865.41667
105.3  829.16667
105.2  794.83333
105.1  728.75
105  675.33333
104.9  646.33333
104.8  599.83333
104.7  552.58333
104.6  532.83333
104.5  496.91667
104.4  493.25
104.3  469
104.2  458.08333
104.1  441
104  410.41667
103.9  409.75
103.8  400.08333
103.7  380.25
103.6  388.33333
103.5  374.91667
103.4  369.25
103.3  357.66667
103.2  356.5
103.1  360
103  353.41667
102.9  345.83333
102.8  364.25
102.7  346.66667
102.6  336.83333
102.5  348.41667
102.4  356.41667
102.3  331.66667
102.2  337.41667
102.1  333.16667
102  329.16667
101.9  338.25
101.8  333.66667
101.7  330.5
101.6  350.91667
101.5  337
101.4  329.83333
101.3  331.5
101.2  346.5
101.1  331.83333
101  326.25

# Group:             overview_HD
#
# Region:            overview
# Acquisition Date:  09/02/22 07:43:31 UTC
# Analysis Method:   XPS
# Analyzer:          Phoibos 100 R6
# Analyzer Lens:     LargeArea:1.5kV
# Analyzer Slit:     1:0.2x20\B:open
# Scan Mode:         FixedAnalyzerTransmission
# Curves/Scan:       1
# Values/Curve:      6021
# Dwell Time:        0.4
# Excitation Energy: 1486.61
# Binding Energy:    1200
# Pass Energy:       30
# Bias Voltage:      90
# Detector Voltage:  2600
# Eff. Workfunction: 4.309
# Source:            X-Ray Dummy
# Comment:           
#
# Cycle: 0
# Number of Scans: 10
#
# Cycle: 0, Curve: 0
# Acquisition Date: 09/02/22 07:43:31 UTC
#
# ColumnLabels: energy counts/s
#
1200  3709.25
1199.8  3680.25
1199.6  3666.25
1199.4  3702
1199.2  3717.25
1199  3718.25
1198.8  3665.5
1198.6  3700.75
1198.4  3670.25
1198.2  3668.75
1198  3661.25
1197.8  3654.5
1197.6  3700.75
1197.4  3685.25
1197.2  3645.5
1197  3682.25
1196.8  3648
1196.6  3695
1196.4  3659
1196.2  3717.5
1196  3676.25
1195.8  3689
1195.6  3710.25
1195.4  3628.5
1195.2  3705
1195  3676.5
1194.8  3711.25
1194.6  3630.5
1194.4  3738.75
1194.2  3620.5
1194  3656
1193.8  3663.75
1193.6  3665
1193.4  3647
1193.2  3665
1193  3650
1192.8  3640.75
1192.6  3627.25
1192.4  3670
1192.2  3649.25
1192  3624.5
1191.8  3657
1191.6  3648.5
1191.4  3682.75
1191.2  3646.5
1191  3667.25
1190.8  3658.75
1190.6  3631
1190.4  3664
1190.2  3664
1190  3661.25
1189.8  3619
1189.6  3694.5
1189.4  3674.25
1189.2  3583
1189  3622.75
1188.8  3618
1188.6  3628.75
1188.4  3594
1188.2  3618.5
1188  3569
1187.8  3640.25
1187.6  3582
1187.4  3623.75
1187.2  3574.25
1187  3607.75
1186.8  3635
1186.6  3622.5
1186.4  3595.25
1186.2  3595
1186  3554.75
1185.8  3625.5
1185.6  3662
1185.4  3627.25
1185.2  3591.5
1185  3581.25
1184.8  3546.25
1184.6  3574.75
1184.4  3560.25
1184.2  3620.5
1184  3531
1183.8  3559
1183.6  3589.25
1183.4  3528
1183.2  3591.5
1183  3619.25
1182.8  3557.25
1182.6  3553
1182.4  3606
1182.2  3537.75
1182  3539.75
1181.8  3608.25
1181.6  3615.5
1181.4  3556.25
1181.2  3615.25
1181  3582
1180.8  3596.25
1180.6  3559.5
1180.4  3578
1180.2  3619.75
1180  3561.75
1179.8  3537.5
1179.6  3534.25
1179.4  3598.25
1179.2  3572.75
1179  3583.75
1178.8  3592
1178.6  3551.25
1178.4  3603
1178.2  3523
1178  3578
1177.8  3521
1177.6  3536
1177.4  3555
1177.2  3565.25
1177  3574.25
1176.8  3509.75
1176.6  3562.75
1176.4  3539
1176.2  3542.25
1176  3555.5
1175.8  3592.5
1175.6  3521.5
1175.4  3520.75
1175.2  3524.25
1175  3605
1174.8  3533
1174.6  3550.75
1174.4  3527.25
1174.2  3516.5
1174  3559.75
1173.8  3572.25
1173.6  3542.25
1173.4  3542
1173.2  3569.5
1173  3565
1172.8  3562.5
1172.6  3498.75
1172.4  3573.75
1172.2  3552.75
1172  3557
1171.8  3513.5
1171.6  3511.75
1171.4  3558.5
1171.2  3515.75
1171  3478.5
1170.8  3529.25
1170.6  3532.25
1170.4  3469.5
1170.2  3532.75
1170  3474
1169.8  3507.5
1169.6  3500.5
1169.4  3521.25
1169.2  3461.5
1169  3468.5
1168.8  3487.5
1168.6  3508.5
1168.4  3550.75
1168.2  3518.5
1168  3526.75
1167.8  3529.75
1167.6  3483.5
1167.4  3478.5
1167.2  3504.75
1167  3477.5
1166.8  3494.75
1166.6  3552
1166.4  3548.25
1166.2  3529
1166  3510.5
1165.8  3559
1165.6  3523.25
1165.4  3534.75
1165.2  3488.25
1165  3509.5
1164.8  3490
1164.6  3521.25
1164.4  3528
1164.2  3446.25
1164  3543.75
1163.8  3505
1163.6  3495.25
1163.4  3485.25
1163.2  3511.75
1163  3485.25
1162.8  3524.5
1162.6  3521.5
1162.4  3514.75
1162.2  3542.25
1162  3536.5
1161.8  3496.75
1161.6  3480
1161.4  3531.75
1161.2  3518.25
1161  3434.75
1160.8  3502
1160.6  3521.25
1160.4  3519.75
1160.2  3450
1160  3511.5
1159.8  3514.25
1159.6  3475.75
1159.4  3430.75
1159.2  3480.75
1159  3457.5
1158.8  3474
1158.6  3476.25
1158.4  3470.25
1158.2  3475.75
1158  3453.75
1157.8  3440.5
1157.6  3507.75
1157.4  3429
1157.2  3479
1157  3483
1156.8  3482.75
1156.6  3495
1156.4  3515
1156.2  3506.75
1156  3477
1155.8  3473.75
1155.6  3456.75
1155.4  3470.5
1155.2  3531
1155  3482.5
1154.8  3437.5
1154.6  3451.75
1154.4  3439
1154.2  3431.75
1154  3495.5
1153.8  3452.75
1153.6  3481.75
1153.4  3408.75
