# Created by:        SpecsLab Prodigy, Version 4.60.2-r85849 
#
# XY-Serializer Export Settings:
#   Comment Prefix:           #
#   Output meta data:         yes
#   Energy Axis:              Binding Energy
#   Count Rate:               Counts per Second
#   Separate Scan Data:       no
#   Separate Channel Data:    no
#   External Channel Data:    yes
#   Transmission Function:    no
#   ErrorBar:                 no
#   Operation Results:        yes
#   Time Zone Format:         UTC
#
# Group:             Spectrum Group
#
# Region:            C1s
# Acquisition Date:  08/26/22 00:24:45 UTC
# Analysis Method:   XPS
# Analyzer:          Phoibos 100 R6
# Analyzer Lens:     LargeArea:1.5kV
# Analyzer Slit:     1:0.2x20\B:open
# Scan Mode:         FixedAnalyzerTransmission
# Curves/Scan:       1
# Values/Curve:      151
# Dwell Time:        0.8
# Excitation Energy: 1486.61
# Binding Energy:    295
# Pass Energy:       30
# Bias Voltage:      90
# Detector Voltage:  2600
# Eff. Workfunction: 4.309
# Source:            X-Ray Dummy
# Comment:           
#
# Cycle: 0
# Number of Scans: 50
#
# Cycle: 0, Curve: 0
# Acquisition Date: 08/26/22 00:24:45 UTC
#
# ColumnLabels: energy counts/s
#
295  971.775
294.9  974.075
294.8  971.55
294.7  976.275
294.6  977.6
294.5  973.475
294.4  978.75
294.3  969.55
294.2  978.925
294.1  977.9
294  985.85
293.9  979.2
293.8  1006.075
293.7  978.9
293.6  982.3
293.5  981.525
293.4  975.175
293.3  982.025
293.2  982.575
293.1  973.25
293  970.075
292.9  978.65
292.8  983.35
292.7  974.95
292.6  979.425
292.5  980.475
292.4  985
292.3  978.225
292.2  985.975
292.1  968.2
292  975.65
291.9  976.1
291.8  984.475
291.7  974.65
291.6  976.675
291.5  982.475
291.4  976.175
291.3  974.85
291.2  980.525
291.1  986.75
291  986.45
290.9  998.575
290.8  978.15
290.7  988.8
290.6  995.425
290.5  993.675
290.4  985.3
290.3  989.45
290.2  992.8
290.1  997.925
290  1001.95
289.9  997.4
289.8  998.05
289.7  1000.225
289.6  997.05
289.5  1012.225
289.4  1008.1
289.3  1003.25
289.2  1016.075
289.1  1016.675
289  1017.075
288.9  1028.475
288.8  1038.175
288.7  1038.95
288.6  1051.7
288.5  1059.8
288.4  1060.75
288.3  1070.375
288.2  1073.125
288.1  1084.875
288  1101.975
287.9  1113.375
287.8  1121.45
287.7  1121.475
287.6  1124.475
287.5  1134.4
287.4  1139.475
287.3  1147.375
287.2  1139.025
287.1  1159.7
287  1151.05
286.9  1154.1
286.8  1152.075
286.7  1142.125
286.6  1151.6
286.5  1158.6
286.4  1153.025
286.3  1136.825
286.2  1131.625
286.1  1124.4
286  1121.175
285.9  1116.65
285.8  1106.625
285.7  1105.875
285.6  1092.025
285.5  1079.05
285.4  1062.275
285.3  1067.7
285.2  1051.675
285.1  1052.475
285  1032.825
284.9  1019.125
284.8  1019.1
284.7  1013.25
284.6  1005.625
284.5  994.6
284.4  1000.825
284.3  998.475
284.2  994.425
284.1  988.925
284  984.5
283.9  995.475
283.8  986.575
283.7  974.95
283.6  981.8
283.5  978.3
283.4  978.25
283.3  969.15
283.2  981.725
283.1  963.1
283  976.2
282.9  974.85
282.8  958.375
282.7  975.85
282.6  967.325
282.5  966.725
282.4  970.125
282.3  975.45
282.2  960.2
282.1  973.425
282  969.175
281.9  967.3
281.8  971.95
281.7  968.525
281.6  965.5
281.5  961.6
281.4  973.825
281.3  967.425
281.2  971.375
281.1  978.125
281  978.525
280.9  966.225
280.8  972.225
280.7  965.175
280.6  973.2
280.5  966.65
280.4  965.925
280.3  974.2
280.2  974.425
280.1  967.6
280  975.725

# Region:            overview
# Acquisition Date:  08/25/22 16:36:47 UTC
# Analysis Method:   XPS
# Analyzer:          Phoibos 100 R6
# Analyzer Lens:     MediumArea:1.5kV
# Analyzer Slit:     1:0.2x20\B:open
# Scan Mode:         FixedAnalyzerTransmission
# Curves/Scan:       1
# Values/Curve:      1205
# Dwell Time:        0.2
# Excitation Energy: 1486.61
# Binding Energy:    1200
# Pass Energy:       50
# Bias Voltage:      90
# Detector Voltage:  2600
# Eff. Workfunction: 4.309
# Source:            X-Ray Dummy
# Comment:           
#
# Cycle: 0
# Number of Scans: 1
#
# Cycle: 0, Curve: 0
# Acquisition Date: 08/25/22 16:36:47 UTC
#
# ColumnLabels: energy counts/s
#
1200  10820
1199  10215
1198  10445
1197  10190
1196  10350
1195  10810
1194  10530
1193  10835
1192  10715
1191  10610
1190  10670
1189  10350
1188  9910
1187  10340
1186  10090
1185  10290
1184  9875
1183  10340
1182  9610
1181  9540
1180  9765
1179  9775
1178  9755
1177  9675
1176  9530
1175  9970
1174  9025
1173  9490
1172  9325
1171  9820
1170  9685
1169  9935
1168  9225
1167  9730
1166  9565
1165  9240
1164  9205
1163  9465
1162  9600
1161  9365
1160  9240
1159  9505
1158  9275
1157  9560
1156  9465
1155  9510
1154  9710
1153  9110
1152  9325
1151  9200
1150  9090
1149  9345
1148  9240
1147  9305
1146  9005
1145  8940
1144  8680
1143  8655
1142  8645
1141  8550
1140  8510
1139  8300
1138  7920
1137  8040
1136  7870
1135  7915
1134  8065
1133  7605
1132  7405
1131  7560
1130  7170
1129  7565
1128  7440
1127  7555
1126  7475
1125  7420
1124  7375
1123  7420
1122  7370
1121  7635
1120  7510
1119  7255
1118  7270
1117  7485
1116  7435
1115  7655
1114  7205
1113  7290
1112  7050
1111  7345
1110  7535
1109  7250
1108  7340
1107  7145
1106  7080
1105  7160
1104  7425
1103  7900
1102  7205
1101  7435
1100  7220
1099  7450
1098  7215
1097  7410
1096  7280
1095  7210
1094  7510
1093  7610
1092  7660
1091  7915
1090  8290
1089  9075
1088  9695
1087  10365
1086  10320
1085  9770
1084  9030
1083  8760
1082  8280
1081  8090
1080  7750
1079  7975
1078  7765
1077  6840
1076  6265
1075  5715
1074  5475
1073  5410
1072  5230
1071  5665
1070  5300
1069  5600
1068  5965
1067  5605
1066  5890
1065  5525
1064  5590
1063  5385
1062  5805
1061  5340
1060  5345
1059  5190
1058  5315
1057  5170
1056  5055
1055  5150
1054  4895
1053  5060
1052  4870
1051  5150
1050  4800
1049  4875
1048  5005
1047  4905
1046  4775
1045  4885
1044  4470
1043  4770
1042  5000
1041  4975
1040  4845
1039  4795
1038  4595
1037  4920
1036  4935
1035  4740
1034  4580
1033  4660
1032  4695
1031  4715
1030  5080
1029  4855
1028  4700
1027  4860
1026  4625
1025  4910
1024  4770
1023  4625
1022  4825
1021  4875
1020  5040
1019  4695
1018  4765
1017  4785
1016  4665
1015  4610
1014  4805
1013  4965
1012  4965
1011  4720
1010  5020
1009  4780
1008  4630
1007  5040
1006  4935
1005  4895
1004  4835
1003  4930
1002  4630
1001  5060
1000  4805
999  4815
998  4770
997  4905
996  4940
995  5125
994  4990
993  4875
992  4880
991  5060
990  4735
989  5000
988  4880
987  4575
986  4810
985  4505
984  4520
983  4720
982  4615
981  4910
980  4790
979  4720
978  4910
977  5105
976  5510
975  5970
974  5290
973  5075
972  5055
971  4970
970  4585
969  4665
968  4395
967  4520
966  4115
965  4415
964  4285
963  4040
962  4290
961  4070
960  4085
959  4130
958  4035
957  4430
956  4110
955  4250
954  4415
953  4275
952  4485
951  4365
950  4285
949  4335
948  4260
947  4185
946  4230
945  4355
944  4055
943  4195
942  4190
941  4210
940  4310
939  4340
938  4210
937  4130
936  4255
935  4370
934  4110
933  4330
932  4265
931  4340
930  4145
929  4255
928  4210
927  4060
926  4255
925  4165
924  4160
923  4440
922  4455
921  4095
920  4350
919  4310
918  4310
917  4250
916  4180
915  4300
914  4150
913  4225
912  4485
911  4420
910  4320
909  4415
908  4260
907  4150
906  4525
905  4255
904  4310
903  4130
902  4385
901  4130
900  4275
899  4290
898  4565
897  4275
896  4135
895  4180
894  4285
893  4240
892  4345
891  4175
890  4280
889  4295
888  4350
887  4150
886  4155
885  4165
884  4200
883  4360
882  3910
881  4270
880  4085
879  4150
878  4155
877  4150
876  4265
875  4035
874  4555
873  4280
872  4280
871  4420
870  3995
869  4465
868  4340
867  4340
866  4140
865  4475
864  4210
863  4405
862  4585
861  4365
860  4525
859  4190
858  4490
857  4355
856  4525
855  4260
854  4415
853  4495
852  4345
851  4515
850  4590
849  4465
848  4255
847  4620
846  4300
845  4355
844  4460
843  4025
842  4350
841  4435
840  4425
839  4725
838  4915
837  4370
836  4515
835  4355
834  4665
833  4535
832  4305
831  4675
830  4910
829  4765
828  4895
827  4615
826  4805
825  4780
824  4915
823  4430
822  4410
821  4550
820  4620
819  4405
818  4240
817  4645
816  4370
815  4275
814  4455
813  4835
812  4245
811  4325
810  4435
809  4240
808  4645
807  4095
806  4470
805  4200
804  4315
803  4420
802  4025
801  4375
800  4240
799  4385
798  4400
797  4400
796  4380
795  4610
794  4295
793  4370
792  4380
791  4410
790  4120
789  4515
788  4285
787  4060
786  4325
785  4300
784  4310
783  4235
782  4490
781  4445
780  4510
779  4455
778  4475
777  4305
776  4325
775  4335
774  4440
773  4665
772  4495
771  4295
770  4625
769  4285
768  4635
767  4785
766  4515
765  4460
764  4555
763  4590
762  4425
761  4615
760  4840
759  4710
758  4740
757  4860
756  4525
755  4805
754  4290
753  4345
752  4455
751  4515
750  4660
749  4425
748  4490
747  4740
746  4490
745  4505
744  4645
743  4650
742  4440
741  4465
740  4675
739  4720
738  4750
737  5060
736  4570
735  4465
734  4860
733  4555
732  4830
731  5100
730  4685
729  4760
728  4965
727  4735
726  4690
725  4815
724  4470
723  4565
722  4525
721  4930
720  4855
719  5100
718  5070
717  5020
716  5160
715  4975
714  5190
713  4875
712  4820
711  4835
710  4875
709  5025
708  5075
707  5315
706  6020
705  6550
704  6530
703  6145
702  5460
701  5300
700  4640
699  4550
698  4550
697  4765
696  4695
695  4895
694  4845
693  4755
692  4725
691  4950
690  4580
689  4840
688  4610
687  4685
686  4905
685  4605
684  4675
683  4665
682  4430
681  5015
680  4385
679  4940
678  4420
677  4650
676  4730
675  4835
674  4615
673  4615
672  4655
671  5255
670  5265
669  6005
668  7155
667  8160
666  8040
665  6895
664  5900
663  5425
662  4645
661  4610
660  4455
659  4195
658  4490
657  4255
656  4605
655  4255
654  4170
653  3960
652  4040
651  3820
650  3905
649  4025
648  3945
647  4070
646  3725
645  4190
644  3880
643  4030
642  3895
641  4015
640  3910
639  3885
638  3650
637  3945
636  3690
635  4000
634  3880
633  3710
632  4110
631  4040
630  3730
629  4040
628  3930
627  3655
626  3915
625  3980
624  3965
623  3920
622  3805
621  4125
620  3955
619  3915
618  4005
617  4080
616  3880
615  4035
614  4315
613  4330
612  4265
611  4085
610  4165
609  4240
608  4080
607  4180
606  3870
605  4255
604  3970
603  4175
602  4165
601  4485
600  4225
599  4130
598  4160
597  4495
596  4095
595  4090
594  4215
593  4230
592  4420
591  4330
590  4425
589  4190
588  4030
587  4095
586  3995
585  4135
584  4345
583  4155
582  4275
581  4135
580  3990
579  4445
578  4205
577  4185
576  4195
575  4185
574  4365
573  4205
572  4235
571  4480
570  4265
569  4380
568  4370
567  4240
566  4605
565  3955
564  4270
563  4435
562  4370
561  4315
560  4575
559  4665
558  4035
557  4365
556  4415
555  4340
554  4385
553  4550
552  4525
551  4525
550  4395
549  4680
548  4740
547  4575
546  4450
545  4665
544  4515
543  4320
542  4445
541  4220
540  4180
539  4520
538  4115
537  4375
536  4260
535  4510
534  4595
533  5295
532  6985
531  7950
530  6865
529  5155
528  4595
527  4275
526  4040
525  4535
524  4280
523  4080
522  4175
521  4505
520  4490
519  4110
518  4495
517  3970
516  3925
515  4085
514  4175
513  4075
512  4420
511  4240
510  4090
509  4365
508  3940
507  4180
506  4280
505  4010
504  4275
503  4040
502  4300
501  4165
500  4230
499  4030
498  4270
497  4565
496  4860
495  4715
494  4605
493  4375
492  4075
491  4260
490  4255
489  4515
488  5240
487  5060
486  4960
485  4335
484  4155
483  4000
482  4195
481  4370
480  4355
479  4100
478  4065
477  4305
476  4385
475  4385
474  4385
473  4600
472  4555
471  4670
470  4325
469  4540
468  4040
467  4305
466  4595
465  4340
464  4655
463  4475
462  4150
461  4395
460  3955
459  3920
458  3910
457  3905
456  4335
455  5815
454  9530
453  14225
452  11605
451  5885
450  3445
449  3380
448  4460
447  8690
446  16295
445  18180
444  11155
443  5180
442  3145
441  2655
440  2500
439  1965
438  1805
437  2220
436  2915
435  3290
434  2520
433  2115
432  1840
431  1520
430  1510
429  1485
428  1605
427  1575
426  1545
425  1430
424  1400
423  1555
422  1295
421  1490
420  1420
419  1485
418  1390
417  1520
416  1445
415  1390
414  1420
413  1390
412  1415
411  1340
410  1400
409  1255
408  1250
407  1195
406  1435
405  1500
404  1480
403  1425
402  1445
401  1700
400  1420
399  1495
398  1310
397  1240
396  1425
395  1465
394  1480
393  1440
392  1395
391  1310
390  1315
389  1520
388  1350
387  1320
386  1320
385  1345
384  1565
383  1405
382  1685
381  1455
380  1465
379  1465
378  1380
377  1445
376  1465
375  1615
374  1430
373  1305
372  1245
371  1315
370  1260
369  1455
368  1350
367  1340
366  1265
365  1160
364  1190
363  1225
362  1230
361  1275
360  1425
359  1185
358  1225
357  1300
356  1285
355  1255
354  1185
353  1270
352  1375
351  1335
350  1325
349  1225
348  1300
347  1325
346  1405
345  1330
344  1260
343  1430
342  1285
341  1325
340  1265
339  1235
338  1260
337  1340
336  1315
335  1275
334  1510
333  1340
332  1405
331  1300
330  1215
329  1395
328  1360
327  1315
326  1390
325  1260
324  1455
323  1235
322  1380
321  1340
320  1385
319  1345
318  1425
317  1380
316  1300
315  1260
314  1225
313  1245
312  1355
311  1185
310  1320
309  1290
308  1470
307  1290
306  1455
305  1180
304  1600
303  1280
302  1325
301  1335
300  1345
299  1400
298  1415
297  1330
296  1245
295  1385
294  1275
293  1425
292  1270
291  1245
290  1490
289  1485
288  1445
287  1565
286  1785
285  1370
284  1355
283  1580
282  1490
281  1425
280  1280
279  1445
278  1350
277  1420
276  1200
275  1440
274  1405
273  1305
272  1290
271  1575
270  1380
269  1400
268  1255
267  1370
266  1495
265  1305
264  1245
263  1480
262  1440
261  1315
260  1295
259  1395
258  1370
257  1485
256  1355
255  1435
254  1445
253  1490
252  1420
251  1520
250  1470
249  1280
248  1570
247  1250
246  1450
245  1455
244  1520
243  1420
242  1575
241  1325
240  1500
239  1385
238  1475
237  1435
236  1480
235  1385
234  1430
233  1415
232  1455
231  1335
230  1485
229  1415
228  1500
227  1350
226  1565
225  1435
224  1335
223  1230
222  1405
221  1485
220  1405
219  1360
218  1200
217  1335
216  1285
215  1375
214  1220
213  1550
212  1460
211  1440
210  1385
209  1415
208  1285
207  1365
206  1370
205  1380
204  1455
203  1460
202  1465
201  1415
200  1425
199  1320
198  1385
197  1375
196  1460
195  1550
194  1565
193  1485
192  1395
191  1360
190  1425
189  1420
188  1350
187  1380
186  1390
185  1470
184  1470
183  1415
182  1445
181  1375
180  1495
179  1545
178  1410
177  1465
176  1420
175  1520
174  1450
173  1365
172  1565
171  1550
170  1320
169  1465
168  1485
167  1370
166  1550
165  1375
164  1535
163  1520
162  1470
161  1435
160  1530
159  1400
158  1495
157  1555
156  1670
155  1570
154  1450
153  1525
152  1470
151  1460
150  1535
149  1420
148  1410
147  1540
146  1430
145  1385
144  1455
143  1505
142  1500
141  1475
140  1600
139  1645
138  1470
137  1595
136  1455
135  1545
134  1595
133  1555
132  1440
131  1570
130  1595
129  1415
128  1525
127  1790
126  1900
125  1585
124  1695
123  1775
122  1425
121  1550
120  1590
119  1455
118  1580
117  1505
116  1520
115  1480
114  1440
113  1470
112  1525
111  1605
110  1570
109  1530
108  1495
107  1455
106  1435
105  1570
104  1700
103  1400
102  1485
101  1620
100  1585
99  1550
98  1625
97  1660
96  1690
95  1665
94  1535
93  1410
92  1685
91  1600
90  1745
89  1705
88  1720
87  1780
86  1675
85  1715
84  1710
83  1905
82  1795
81  1845
80  1845
79  1700
78  1660
77  1695
76  1580
75  1605
74  1470
73  1420
72  1365
71  1375
70  1375
69  1320
68  1170
67  1180
66  1175
65  1150
64  1220
63  1120
62  1085
61  975
60  1045
59  1055
58  1160
57  1110
56  1200
55  1135
54  1095
53  1135
52  1155
51  1110
50  1120
49  1105
48  1195
47  1230
46  1210
45  1190
44  1075
43  1035
42  1425
41  1175
40  1240
39  1090
38  1175
37  1110
36  1085
35  1270
34  1205
33  1270
32  1100
31  1175
30  1145
29  1205
28  1370
27  1300
26  1235
25  1340
24  1040
23  1210
22  1290
21  1820
20  3075
19  4110
18  3685
17  1955
16  1200
15  820
14  875
13  835
12  775
11  755
10  1015
9  1085
8  1350
7  1065
6  925
5  880
4  795
3  675
2  605
1  670
-2.2737368e-013  675
-1  755
-2  660
-3  730
-4  605

# Region:            N1s
# Acquisition Date:  08/26/22 01:49:54 UTC
# Analysis Method:   XPS
# Analyzer:          Phoibos 100 R6
# Analyzer Lens:     LargeArea:1.5kV
# Analyzer Slit:     1:0.2x20\B:open
# Scan Mode:         FixedAnalyzerTransmission
# Curves/Scan:       1
# Values/Curve:      121
# Dwell Time:        0.8
# Excitation Energy: 1486.61
# Binding Energy:    409
# Pass Energy:       30
# Bias Voltage:      90
# Detector Voltage:  2600
# Eff. Workfunction: 4.309
# Source:            X-Ray Dummy
# Comment:           
#
# Cycle: 0
# Number of Scans: 100
#
# Cycle: 0, Curve: 0
# Acquisition Date: 08/26/22 01:49:54 UTC
#
# ColumnLabels: energy counts/s
#
409  1096.05
408.9  1080.0125
408.8  1085.25
408.7  1084.1625
408.6  1086.4125
408.5  1084.3875
408.4  1086.2375
408.3  1087.475
408.2  1081.95
408.1  1084.7875
408  1090.975
407.9  1083.6625
407.8  1085.3125
407.7  1088.7375
407.6  1082.325
407.5  1088.6375
407.4  1088.7875
407.3  1088.275
407.2  1084.9125
407.1  1080.1625
407  1084.6625
406.9  1091.1375
406.8  1083.7875
406.7  1082.3875
406.6  1090.4125
406.5  1085.5625
406.4  1089.1625
406.3  1094.55
406.2  1085.3875
406.1  1092.7875
406  1088.8625
405.9  1085.1625
405.8  1087.7625
405.7  1087.375
405.6  1082.15
405.5  1085.1125
405.4  1082.8
405.3  1085.2125
405.2  1086.8875
405.1  1082.5625
405  1084.65
404.9  1082.3
404.8  1085.3625
404.7  1089.625
404.6  1090.5375
404.5  1082.1125
404.4  1091.425
404.3  1088.95
404.2  1092.075
404.1  1091.2125
404  1101.5625
403.9  1091.2625
403.8  1090.4375
403.7  1093.1625
403.6  1098.075
403.5  1092.0125
403.4  1102.9875
403.3  1100.1
403.2  1093.775
403.1  1102.45
403  1095.9625
402.9  1096
402.8  1096.4375
402.7  1106.7625
402.6  1102.1625
402.5  1106.4625
402.4  1105.0375
402.3  1113.825
402.2  1098.2
402.1  1109.325
402  1114.9
401.9  1106.3625
401.8  1109.025
401.7  1111.15
401.6  1109
401.5  1111.65
401.4  1112.35
401.3  1113.175
401.2  1109.5
401.1  1112.325
401  1116.525
400.9  1120.275
400.8  1111.025
400.7  1121.5125
400.6  1115.9
400.5  1110.775
400.4  1112.25
400.3  1123.2625
400.2  1121.0875
400.1  1118.4625
400  1125.4
399.9  1115.3875
399.8  1113.5125
399.7  1112.8125
399.6  1104.3
399.5  1109.675
399.4  1100.5875
399.3  1102.925
399.2  1098.025
399.1  1097.15
399  1097.7625
398.9  1098.1
398.8  1100.475
398.7  1092.175
398.6  1091.25
398.5  1088.3375
398.4  1085.0125
398.3  1086.0875
398.2  1081.8125
398.1  1083.1
398  1085.4125
397.9  1089.6
397.8  1081.3625
397.7  1086.0375
397.6  1081.45
397.5  1080.9
397.4  1084.925
397.3  1077.85
397.2  1082.1625
397.1  1079.6125
397  1081.2875

# Region:            O1s
# Acquisition Date:  08/25/22 23:53:13 UTC
# Analysis Method:   XPS
# Analyzer:          Phoibos 100 R6
# Analyzer Lens:     LargeArea:1.5kV
# Analyzer Slit:     1:0.2x20\B:open
# Scan Mode:         FixedAnalyzerTransmission
# Curves/Scan:       1
# Values/Curve:      141
# Dwell Time:        0.8
# Excitation Energy: 1486.61
# Binding Energy:    541
# Pass Energy:       30
# Bias Voltage:      90
# Detector Voltage:  2600
# Eff. Workfunction: 4.309
# Source:            X-Ray Dummy
# Comment:           
#
# Cycle: 0
# Number of Scans: 40
#
# Cycle: 0, Curve: 0
# Acquisition Date: 08/25/22 23:53:13 UTC
#
# ColumnLabels: energy counts/s
#
541  3704.8125
540.9  3694.8125
540.8  3709.7813
540.7  3700.9063
540.6  3694.8125
540.5  3695.6875
540.4  3694.1563
540.3  3705.9688
540.2  3692.875
540.1  3694.7813
540  3681.4375
539.9  3683.7188
539.8  3682.9688
539.7  3685.2813
539.6  3686.4375
539.5  3675.8125
539.4  3660.3125
539.3  3675
539.2  3662
539.1  3670.0313
539  3670.25
538.9  3637.75
538.8  3673.0625
538.7  3673.0938
538.6  3666.0625
538.5  3681.0313
538.4  3671.6563
538.3  3668.5625
538.2  3661.9375
538.1  3646.75
538  3666
537.9  3645.4375
