# Created by:        SpecsLab Prodigy, Version 4.60.2-r85849 
#
# XY-Serializer Export Settings:
#   Comment Prefix:           #
#   Output meta data:         yes
#   Energy Axis:              Binding Energy
#   Count Rate:               Counts per Second
#   Separate Scan Data:       no
#   Separate Channel Data:    no
#   External Channel Data:    yes
#   Transmission Function:    no
#   ErrorBar:                 no
#   Operation Results:        yes
#   Time Zone Format:         UTC
#
# Group:             Spectrum Group
#
# Region:            C1s
# Acquisition Date:  09/15/22 10:45:43 UTC
# Analysis Method:   XPS
# Analyzer:          Phoibos 100 R6
# Analyzer Lens:     LargeArea:1.5kV
# Analyzer Slit:     1:0.2x20\B:open
# Scan Mode:         FixedAnalyzerTransmission
# Curves/Scan:       1
# Values/Curve:      151
# Dwell Time:        0.8
# Excitation Energy: 1486.61
# Binding Energy:    295
# Pass Energy:       30
# Bias Voltage:      90
# Detector Voltage:  2600
# Eff. Workfunction: 4.309
# Source:            X-Ray Dummy
# Comment:           
#
# Cycle: 0
# Number of Scans: 10
#
# Cycle: 0, Curve: 0
# Acquisition Date: 09/15/22 10:45:43 UTC
#
# ColumnLabels: energy counts/s
#
295  896.625
294.9  851.25
294.8  852.25
294.7  858.5
294.6  845.625
294.5  852.5
294.4  848.875
294.3  857.25
294.2  863.75
294.1  854.875
294  834.625
293.9  844.25
293.8  858.625
293.7  848.625
293.6  852
293.5  849.625
293.4  835.875
293.3  858.125
293.2  841.375
293.1  853.375
293  866.5
292.9  861.75
292.8  859.625
292.7  844.625
292.6  853.375
292.5  860.75
292.4  846.875
292.3  863.625
292.2  862.625
292.1  863.875
292  849.875
291.9  861.625
291.8  866.25
291.7  871.75
291.6  856.375
291.5  850.625
291.4  867
291.3  856.375
291.2  871.5
291.1  864.125
291  865.5
290.9  857
290.8  863.125
290.7  866.625
290.6  866
290.5  857.125
290.4  900.75
290.3  869.625
290.2  864.125
290.1  883.25
290  883.5
289.9  872.75
289.8  885.375
289.7  867.875
289.6  869.25
289.5  892
289.4  900.25
289.3  870
289.2  896.75
289.1  899.75
289  899.75
288.9  898.5
288.8  917
288.7  906.5
288.6  910.625
288.5  925.25
288.4  935.125
288.3  940.125
288.2  966.375
288.1  954.875
288  970.125
287.9  970
287.8  1006.75
287.7  985.875
287.6  1002.5
287.5  993.875
287.4  1004.25
287.3  1005.75
287.2  1068.375
287.1  1044.75
287  1078.25
286.9  1054
286.8  1065.875
286.7  1065.625
286.6  1083.875
286.5  1097.875
286.4  1103.5
286.3  1113.125
286.2  1101.25
286.1  1110.125
286  1097.125
285.9  1113.375
285.8  1098.5
285.7  1092
285.6  1087.125
285.5  1072.5
285.4  1035.875
285.3  1043.5
285.2  1029.125
285.1  1032.125
285  990.125
284.9  974.75
284.8  979.625
284.7  973.875
284.6  954.25
284.5  922.25
284.4  904.25
284.3  898.25
284.2  883
284.1  901.125
284  882
283.9  875.625
283.8  882.375
283.7  879.25
283.6  874.125
283.5  855.875
283.4  853.75
283.3  850
283.2  856
283.1  862.5
283  841.625
282.9  839.375
282.8  861.375
282.7  819.375
282.6  836.5
282.5  849.875
282.4  848
282.3  849.625
282.2  848.5
282.1  843.125
282  857.75
281.9  830.625
281.8  848.75
281.7  838.875
281.6  842.625
281.5  855.375
281.4  852.375
281.3  834.875
281.2  851.5
281.1  834
281  826.875
280.9  831.375
280.8  848.625
280.7  825
280.6  839.875
280.5  853.875
280.4  834.625
280.3  856
280.2  839.5
280.1  838
280  836.75

# Region:            In3d
# Acquisition Date:  09/15/22 07:46:16 UTC
# Analysis Method:   XPS
# Analyzer:          Phoibos 100 R6
# Analyzer Lens:     LargeArea:1.5kV
# Analyzer Slit:     1:0.2x20\B:open
# Scan Mode:         FixedAnalyzerTransmission
# Curves/Scan:       1
# Values/Curve:      231
# Dwell Time:        0.8
# Excitation Energy: 1486.61
# Binding Energy:    460
# Pass Energy:       30
# Bias Voltage:      90
# Detector Voltage:  2600
# Eff. Workfunction: 4.309
# Source:            X-Ray Dummy
# Comment:           
#
# Cycle: 0
# Number of Scans: 1
#
# Cycle: 0, Curve: 0
# Acquisition Date: 09/15/22 07:46:16 UTC
#
# ColumnLabels: energy counts/s
#
460  2802.5
459.9  2836.25
459.8  2850
459.7  2830
459.6  2932.5
459.5  2780
459.4  2843.75
459.3  2825
459.2  2836.25
459.1  2860
459  2950
458.9  2806.25
458.8  2796.25
458.7  2816.25
458.6  2811.25
458.5  2847.5
458.4  2803.75
458.3  2828.75
458.2  2803.75
458.1  2611.25
458  2815
457.9  2671.25
457.8  2791.25
457.7  2763.75
457.6  2796.25
457.5  2883.75
457.4  2743.75
457.3  2738.75
457.2  2833.75
457.1  2748.75
457  2771.25
456.9  2875
456.8  2778.75
456.7  2888.75
456.6  2877.5
456.5  2815
456.4  2937.5
456.3  2898.75
456.2  2876.25
456.1  2967.5
456  2992.5
455.9  3186.25
455.8  3166.25
455.7  3296.25
455.6  3337.5
455.5  3402.5
455.4  3418.75
455.3  3570
455.2  3718.75
455.1  3822.5
455  3908.75
454.9  4257.5
454.8  4475
454.7  4605
454.6  5066.25
454.5  5065
454.4  5387.5
454.3  5752.5
454.2  6262.5
454.1  6418.75
454  6838.75
453.9  7441.25
453.8  7660
453.7  8073.75
453.6  8685
453.5  8855
453.4  9375
453.3  9672.5
453.2  9917.5
453.1  10217.5
453  10405
452.9  10348.75
452.8  10735
452.7  10491.25
452.6  10417.5
452.5  10066.25
452.4  9617.5
452.3  9363.75
452.2  8522.5
452.1  7987.5
452  7822.5
451.9  6947.5
451.8  6345
451.7  5798.75
451.6  5065
451.5  4712.5
451.4  4171.25
451.3  3933.75
451.2  3707.5
451.1  3401.25
451  3140
450.9  2978.75
450.8  2812.5
450.7  2518.75
450.6  2513.75
450.5  2456.25
450.4  2402.5
450.3  2467.5
450.2  2238.75
450.1  2330
450  2312.5
449.9  2225
449.8  2281.25
449.7  2310
449.6  2196.25
449.5  2317.5
449.4  2291.25
449.3  2373.75
449.2  2271.25
449.1  2276.25
449  2507.5
448.9  2426.25
448.8  2508.75
448.7  2445
448.6  2582.5
448.5  2732.5
448.4  2765
448.3  2686.25
448.2  2867.5
448.1  2901.25
448  3062.5
447.9  3177.5
447.8  3553.75
447.7  3585
447.6  3708.75
447.5  3975
447.4  4318.75
447.3  4653.75
447.2  4820
447.1  5302.5
447  5708.75
446.9  5933.75
446.8  6417.5
446.7  6992.5
446.6  7581.25
446.5  8005
446.4  8621.25
446.3  9368.75
446.2  9886.25
446.1  10681.25
446  11251.25
445.9  11407.5
445.8  12231.25
445.7  12778.75
445.6  13065
445.5  13192.5
445.4  13635
445.3  13750
445.2  13745
445.1  13686.25
445  13302.5
444.9  12725
444.8  12378.75
444.7  11715
444.6  10941.25
444.5  9961.25
444.4  8965
444.3  8305
444.2  7262.5
444.1  6865
444  6031.25
443.9  5495
443.8  4861.25
443.7  4258.75
443.6  3958.75
443.5  3660
443.4  3385
443.3  3266.25
443.2  3098.75
443.1  2823.75
443  2816.25
442.9  2691.25
442.8  2563.75
442.7  2565
442.6  2443.75
442.5  2291.25
442.4  2268.75
442.3  2247.5
442.2  2117.5
442.1  2003.75
442  2058.75
441.9  2002.5
441.8  1852.5
441.7  1915
441.6  1906.25
441.5  1813.75
441.4  1826.25
441.3  1857.5
441.2  1642.5
441.1  1751.25
441  1716.25
440.9  1682.5
440.8  1737.5
440.7  1681.25
440.6  1690
440.5  1577.5
440.4  1541.25
440.3  1525
440.2  1520
440.1  1526.25
440  1490
439.9  1460
439.8  1401.25
439.7  1373.75
439.6  1381.25
439.5  1420
439.4  1376.25
439.3  1320
439.2  1360
439.1  1317.5
439  1303.75
438.9  1345
438.8  1258.75
438.7  1260
438.6  1275
438.5  1302.5
438.4  1253.75
438.3  1231.25
438.2  1310
438.1  1280
438  1297.5
437.9  1271.25
437.8  1315
437.7  1326.25
437.6  1382.5
437.5  1286.25
437.4  1285
437.3  1422.5
437.2  1410
437.1  1402.5
437  1446.25

# Region:            Sn3d
# Acquisition Date:  09/15/22 07:49:24 UTC
# Analysis Method:   XPS
# Analyzer:          Phoibos 100 R6
# Analyzer Lens:     LargeArea:1.5kV
# Analyzer Slit:     1:0.2x20\B:open
# Scan Mode:         FixedAnalyzerTransmission
# Curves/Scan:       1
# Values/Curve:      231
# Dwell Time:        0.8
# Excitation Energy: 1486.61
# Binding Energy:    503
# Pass Energy:       30
# Bias Voltage:      90
# Detector Voltage:  2600
# Eff. Workfunction: 4.309
# Source:            X-Ray Dummy
# Comment:           
#
# Cycle: 0
# Number of Scans: 1
#
# Cycle: 0, Curve: 0
# Acquisition Date: 09/15/22 07:49:24 UTC
#
# ColumnLabels: energy counts/s
#
503  2980
502.9  3031.25
502.8  2907.5
502.7  3011.25
502.6  2985
502.5  2932.5
502.4  3167.5
502.3  2930
502.2  3020
502.1  2973.75
502  3020
501.9  3000
501.8  3035
501.7  2996.25
501.6  3021.25
501.5  3035
501.4  3035
501.3  2998.75
501.2  3051.25
501.1  2965
501  3003.75
500.9  3012.5
500.8  3028.75
500.7  3046.25
500.6  2988.75
500.5  3021.25
500.4  3047.5
500.3  3030
500.2  3100
500.1  3041.25
500  2980
499.9  2937.5
499.8  3062.5
499.7  2963.75
499.6  3013.75
499.5  3108.75
499.4  3098.75
499.3  2995
499.2  3055
499.1  2977.5
499  3055
498.9  3140
498.8  3021.25
498.7  3090
498.6  2980
498.5  3037.5
498.4  3160
498.3  2961.25
498.2  3122.5
498.1  3120
498  2992.5
497.9  3121.25
497.8  3140
497.7  3166.25
497.6  3232.5
497.5  3081.25
497.4  3172.5
497.3  3145
497.2  3081.25
497.1  3321.25
497  3276.25
496.9  3118.75
496.8  3235
496.7  3256.25
496.6  3271.25
496.5  3375
496.4  3425
496.3  3332.5
496.2  3393.75
496.1  3375
496  3501.25
495.9  3447.5
495.8  3453.75
495.7  3458.75
495.6  3463.75
495.5  3501.25
495.4  3522.5
495.3  3548.75
495.2  3570
495.1  3500
495  3407.5
494.9  3310
494.8  3142.5
494.7  3376.25
494.6  3346.25
494.5  3178.75
494.4  3182.5
494.3  3227.5
494.2  3201.25
494.1  3015
494  3213.75
493.9  3112.5
493.8  3092.5
493.7  3040
493.6  2932.5
493.5  3058.75
493.4  3027.5
493.3  3022.5
493.2  2982.5
493.1  2996.25
493  2906.25
492.9  2906.25
492.8  2920
492.7  2933.75
492.6  3000
492.5  2951.25
492.4  3038.75
492.3  2950
492.2  3036.25
492.1  2868.75
492  2977.5
491.9  2820
491.8  2872.5
491.7  2937.5
491.6  2955
491.5  2872.5
491.4  2918.75
491.3  2961.25
491.2  2961.25
491.1  2967.5
491  2921.25
490.9  2946.25
490.8  2953.75
490.7  2981.25
490.6  2955
490.5  3003.75
490.4  2907.5
490.3  3030
490.2  2986.25
490.1  2898.75
490  3003.75
489.9  3101.25
489.8  3120
489.7  3135
489.6  3205
489.5  3020
489.4  3113.75
489.3  3091.25
489.2  3121.25
489.1  3168.75
489  3231.25
488.9  3301.25
488.8  3220
488.7  3221.25
488.6  3400
488.5  3338.75
488.4  3328.75
488.3  3365
488.2  3513.75
488.1  3428.75
488  3482.5
487.9  3603.75
487.8  3550
487.7  3528.75
487.6  3560
487.5  3716.25
487.4  3737.5
487.3  3577.5
487.2  3600
487.1  3691.25
487  3572.5
486.9  3668.75
486.8  3692.5
486.7  3672.5
486.6  3498.75
486.5  3546.25
486.4  3522.5
486.3  3376.25
486.2  3443.75
486.1  3395
486  3281.25
485.9  3275
485.8  3237.5
485.7  3295
485.6  3146.25
485.5  3275
485.4  3063.75
485.3  3050
485.2  3122.5
485.1  3155
485  3163.75
484.9  2998.75
484.8  2982.5
484.7  2933.75
484.6  2933.75
484.5  2931.25
484.4  2992.5
484.3  2923.75
484.2  3045
484.1  2961.25
484  2956.25
483.9  3063.75
483.8  2920
483.7  3023.75
483.6  2953.75
483.5  2935
483.4  2962.5
483.3  2916.25
483.2  2957.5
483.1  3013.75
483  2950
482.9  2888.75
482.8  3052.5
482.7  2946.25
482.6  3012.5
482.5  2890
482.4  2868.75
482.3  2933.75
482.2  3023.75
482.1  2950
482  2917.5
481.9  2961.25
481.8  2972.5
481.7  2956.25
481.6  3067.5
481.5  2947.5
481.4  2985
481.3  2986.25
481.2  3125
481.1  3103.75
481  2967.5
480.9  2967.5
480.8  2923.75
480.7  2971.25
480.6  2946.25
480.5  3036.25
480.4  2980
480.3  2955
480.2  3116.25
480.1  3077.5
480  2915

# Region:            O1s
# Acquisition Date:  09/15/22 11:58:02 UTC
# Analysis Method:   XPS
# Analyzer:          Phoibos 100 R6
# Analyzer Lens:     LargeArea:1.5kV
# Analyzer Slit:     1:0.2x20\B:open
# Scan Mode:         FixedAnalyzerTransmission
# Curves/Scan:       1
# Values/Curve:      111
# Dwell Time:        0.8
# Excitation Energy: 1486.61
# Binding Energy:    538
# Pass Energy:       30
# Bias Voltage:      90
# Detector Voltage:  2600
# Eff. Workfunction: 4.309
# Source:            X-Ray Dummy
# Comment:           
#
# Cycle: 0
# Number of Scans: 28
#
# Cycle: 0, Curve: 0
# Acquisition Date: 09/15/22 11:58:02 UTC
#
# ColumnLabels: energy counts/s
#
538  3243.7946
537.9  3273.5714
537.8  3253.2589
537.7  3245.8036
537.6  3252.2768
537.5  3232.9464
537.4  3207.6786
537.3  3233.3482
537.2  3256.2946
537.1  3217.1875
537  3224.7321
536.9  3239.9107
536.8  3238.0804
536.7  3240.6696
536.6  3228.4821
536.5  3218.7946
536.4  3214.5982
536.3  3256.6071
536.2  3212.8125
536.1  3226.3839
536  3219.2411
535.9  3234.0625
535.8  3247.3214
535.7  3234.1071
535.6  3251.0268
535.5  3260.8482
535.4  3244.5536
535.3  3271.1607
535.2  3273.0804
535.1  3270.4464
535  3283.5714
534.9  3307.8125
534.8  3303.0804
534.7  3326.3393
534.6  3339.5536
534.5  3363.4821
534.4  3397.9464
534.3  3423.7054
534.2  3446.4732
534.1  3436.6071
534  3491.7857
533.9  3493.3929
533.8  3550.1339
533.7  3592.5446
533.6  3614.2857
533.5  3654.2411
533.4  3697.3214
533.3  3749.5089
533.2  3806.7411
533.1  3836.6071
533  3896.4286
532.9  3959.0179
532.8  4017.7232
532.7  4107.6786
532.6  4185.1339
532.5  4264.6429
532.4  4362.3661
532.3  4509.6429
532.2  4591.7857
532.1  4712.2768
532  4821.4732
531.9  4950.3125
531.8  5089.4643
531.7  5224.4643
531.6  5394.5536
531.5  5491.9196
531.4  5646.5179
531.3  5792.8571
531.2  5872.0982
531.1  5961.8304
531  6005.5357
530.9  6033.9732
530.8  6016.1607
530.7  5961.0714
530.6  5893.0804
530.5  5780.0446
530.4  5595.4911
530.3  5451.7411
530.2  5267.5446
530.1  5043.3036
530  4838.2143
529.9  4604.9107
529.8  4430
529.7  4233.9286
529.6  4074.2857
529.5  3882.0536
529.4  3767.8571
529.3  3629.1964
529.2  3549.9107
529.1  3463.0804
529  3389.4196
528.9  3330.4464
528.8  3290.5804
528.7  3288.75
528.6  3231.4286
528.5  3210.6696
528.4  3192.1875
528.3  3178.4375
528.2  3180.4464
528.1  3167.7232
528  3159.5982
527.9  3168.3482
527.8  3129.6429
527.7  3127.7679
527.6  3120.8036
527.5  3115.0446
527.4  3114.0625
527.3  3098.9286
527.2  3105.1339
527.1  3108.3482
527  3094.0625

# Region:            Si2p
# Acquisition Date:  09/15/22 11:56:31 UTC
# Analysis Method:   XPS
# Analyzer:          Phoibos 100 R6
# Analyzer Lens:     LargeArea:1.5kV
# Analyzer Slit:     1:0.2x20\B:open
# Scan Mode:         FixedAnalyzerTransmission
# Curves/Scan:       1
# Values/Curve:      101
# Dwell Time:        0.8
# Excitation Energy: 1486.61
# Binding Energy:    110
# Pass Energy:       30
# Bias Voltage:      90
# Detector Voltage:  2600
# Eff. Workfunction: 4.309
# Source:            X-Ray Dummy
# Comment:           
#
# Cycle: 0
# Number of Scans: 24
#
# Cycle: 0, Curve: 0
# Acquisition Date: 09/15/22 11:56:31 UTC
#
# ColumnLabels: energy counts/s
#
110  865
109.9  861.66667
109.8  845.41667
109.7  855
109.6  862.96875
109.5  875.78125
109.4  846.66667
109.3  858.02083
109.2  862.55208
109.1  855.05208
109  868.02083
108.9  866.25
108.8  851.51042
108.7  864.84375
108.6  870.36458
108.5  856.35417
108.4  853.02083
108.3  855.72917
108.2  862.86458
108.1  857.29167
108  853.54167
107.9  862.55208
107.8  865.625
107.7  859.32292
107.6  862.44792
107.5  855.98958
107.4  873.125
107.3  863.85417
107.2  873.69792
107.1  859.58333
107  857.70833
106.9  863.33333
106.8  869.0625
106.7  869.53125
106.6  868.28125
106.5  864.11458
106.4  860.57292
106.3  865.9375
106.2  862.23958
106.1  866.45833
106  860.20833
105.9  863.64583
105.8  860.36458
105.7  863.07292
105.6  859.89583
105.5  853.4375
105.4  882.5
105.3  876.14583
105.2  882.13542
105.1  874.79167
105  881.25
104.9  869.58333
104.8  869.11458
104.7  877.8125
104.6  873.59375
104.5  884.94792
104.4  876.25
104.3  884.84375
104.2  866.09375
104.1  875.9375
104  879.42708
103.9  878.07292
103.8  886.5625
103.7  895.98958
103.6  882.86458
103.5  886.35417
103.4  869.27083
103.3  870.88542
103.2  882.5
103.1  875.625
103  869.11458
102.9  883.33333
102.8  877.60417
102.7  882.91667
102.6  885.15625
102.5  885.20833
102.4  891.61458
102.3  878.33333
102.2  872.13542
102.1  883.28125
102  868.125
101.9  883.38542
101.8  869.94792
101.7  879.32292
101.6  886.97917
101.5  892.13542
101.4  891.875
101.3  883.125
101.2  881.82292
101.1  892.13542
101  879.6875
100.9  882.23958
100.8  879.84375
100.7  877.1875
100.6  873.48958
100.5  883.02083
100.4  884.89583
100.3  888.125
100.2  895.15625
100.1  905
100  877.70833

# Region:            N1s
# Acquisition Date:  09/15/22 09:04:24 UTC
# Analysis Method:   XPS
# Analyzer:          Phoibos 100 R6
# Analyzer Lens:     LargeArea:1.5kV
# Analyzer Slit:     1:0.2x20\B:open
# Scan Mode:         FixedAnalyzerTransmission
# Curves/Scan:       1
# Values/Curve:      121
# Dwell Time:        0.8
# Excitation Energy: 1486.61
# Binding Energy:    409
# Pass Energy:       30
# Bias Voltage:      90
# Detector Voltage:  2600
# Eff. Workfunction: 4.309
# Source:            X-Ray Dummy
# Comment:           
#
# Cycle: 0
# Number of Scans: 25
#
# Cycle: 0, Curve: 0
# Acquisition Date: 09/15/22 09:04:24 UTC
#
# ColumnLabels: energy counts/s
#
409  934.7
408.9  925.3
408.8  921.8
408.7  923.55
408.6  919.75
408.5  926.9
408.4  924
408.3  937.7
408.2  934.75
408.1  924.55
408  938.4
407.9  934.5
407.8  931.55
407.7  922.5
407.6  923.35
407.5  930.8
407.4  929.25
407.3  937.2
407.2  920.6
407.1  941.65
407  926.9
406.9  922.35
406.8  928.75
406.7  913.65
406.6  929.5
406.5  924.5
406.4  928.75
406.3  915.4
406.2  926.6
406.1  931.1
406  939.45
405.9  933.95
405.8  924.85
405.7  921.75
405.6  918.45
405.5  913.95
405.4  931.5
405.3  931.75
405.2  915.7
405.1  924.5
405  920.85
404.9  917.65
404.8  929.4
404.7  951.65
404.6  928.1
404.5  921.75
404.4  922.2
404.3  916.6
404.2  933.9
404.1  940.05
404  937.45
403.9  929.45
403.8  924.4
403.7  934.9
403.6  925.45
403.5  928.4
403.4  937.25
403.3  937.45
403.2  924.65
403.1  936.85
403  938.55
402.9  913.7
402.8  931.75
402.7  939.7
402.6  934.45
402.5  938.4
402.4  943.2
402.3  942.25
402.2  945.15
402.1  945.6
402  962.6
401.9  952.65
401.8  945.4
401.7  957.55
401.6  950.15
401.5  955.1
401.4  958.55
401.3  966.95
401.2  962.9
401.1  955.6
401  961.7
400.9  959.1
400.8  958.45
400.7  953.05
400.6  951.05
400.5  961
400.4  950.95
400.3  962.75
400.2  956.25
400.1  947.75
400  948.2
399.9  945.6
399.8  962.7
399.7  942.3
399.6  946.25
399.5  943.5
399.4  939.35
399.3  939.65
399.2  945.85
399.1  938.4
399  944
398.9  934.65
398.8  931.9
398.7  919.95
398.6  942.9
398.5  919.5
398.4  931.75
398.3  925.3
398.2  934.95
398.1  924.45
398  927.3
397.9  924.1
397.8  919.2
397.7  926.65
397.6  922.05
397.5  926.85
397.4  924.1
397.3  929.65
397.2  928.7
397.1  918.8
397  925.55

# Region:            Si2s
# Acquisition Date:  09/15/22 11:13:18 UTC
# Analysis Method:   XPS
# Analyzer:          Phoibos 100 R6
# Analyzer Lens:     LargeArea:1.5kV
# Analyzer Slit:     1:0.2x20\B:open
# Scan Mode:         FixedAnalyzerTransmission
# Curves/Scan:       1
# Values/Curve:      71
# Dwell Time:        0.8
# Excitation Energy: 1486.61
# Binding Energy:    157
# Pass Energy:       30
# Bias Voltage:      90
# Detector Voltage:  2600
# Eff. Workfunction: 4.309
# Source:            X-Ray Dummy
# Comment:           
#
# Cycle: 0
# Number of Scans: 15
#
# Cycle: 0, Curve: 0
# Acquisition Date: 09/15/22 11:13:18 UTC
#
# ColumnLabels: energy counts/s
#
157  876.91667
156.9  899.66667
156.8  867.83333
156.7  890.41667
156.6  869.75
156.5  893.5
156.4  877.08333
156.3  897.08333
156.2  885.66667
156.1  902.66667
156  869.83333
155.9  871.16667
155.8  870.16667
155.7  883.75
155.6  871.33333
155.5  880.58333
155.4  873.66667
155.3  853.33333
155.2  885.08333
155.1  874.41667
155  880.16667
154.9  892.91667
154.8  887.16667
154.7  870.41667
154.6  868
154.5  866.16667
154.4  872.75
154.3  878.08333
154.2  876.66667
154.1  856.16667
154  876.75
153.9  871.16667
153.8  879
153.7  862
153.6  871.58333
153.5  875.08333
153.4  867.58333
153.3  849.25
153.2  870.25
153.1  850
153  880.16667
152.9  886.83333
152.8  875.83333
152.7  879.75
152.6  875.58333
152.5  878.5
152.4  866.16667
152.3  874.33333
152.2  875.66667
152.1  878.58333
152  858.33333
151.9  865.08333
151.8  881.5
151.7  872.66667
151.6  885
151.5  864.5
151.4  876.75
151.3  867.58333
151.2  906.66667
151.1  830.58333
151  872.83333
150.9  877
150.8  878
150.7  883
150.6  866.41667
150.5  860.33333
150.4  860.16667
150.3  841.41667
150.2  865
150.1  861.41667
150  870.66667

# Region:            Ba3d
# Acquisition Date:  09/15/22 07:56:32 UTC
# Analysis Method:   XPS
