# Created by:        SpecsLab Prodigy, Version 4.60.2-r85849 
#
# XY-Serializer Export Settings:
#   Comment Prefix:           #
#   Output meta data:         yes
#   Energy Axis:              Binding Energy
#   Count Rate:               Counts per Second
#   Separate Scan Data:       no
#   Separate Channel Data:    no
#   External Channel Data:    yes
#   Transmission Function:    no
#   ErrorBar:                 no
#   Operation Results:        yes
#   Time Zone Format:         UTC
#
# Group:             Spectrum Group
#
# Region:            C1s
# Acquisition Date:  09/15/22 20:21:09 UTC
# Analysis Method:   XPS
# Analyzer:          Phoibos 100 R6
# Analyzer Lens:     LargeArea:1.5kV
# Analyzer Slit:     1:0.2x20\B:open
# Scan Mode:         FixedAnalyzerTransmission
# Curves/Scan:       1
# Values/Curve:      151
# Dwell Time:        0.8
# Excitation Energy: 1486.61
# Binding Energy:    295
# Pass Energy:       30
# Bias Voltage:      90
# Detector Voltage:  2600
# Eff. Workfunction: 4.309
# Source:            X-Ray Dummy
# Comment:           
#
# Cycle: 0
# Number of Scans: 40
#
# Cycle: 0, Curve: 0
# Acquisition Date: 09/15/22 20:21:09 UTC
#
# ColumnLabels: energy counts/s
#
295  920.78125
294.9  915.46875
294.8  919.375
294.7  928.59375
294.6  932.09375
294.5  927.53125
294.4  925.6875
294.3  931.375
294.2  927.625
294.1  931.25
294  929.125
293.9  942.09375
293.8  931.34375
293.7  924.03125
293.6  931.1875
293.5  918.1875
293.4  927.375
293.3  928.59375
293.2  923.5625
293.1  920.15625
293  914.65625
292.9  920.375
292.8  915.78125
292.7  923.21875
292.6  917.1875
292.5  914.53125
292.4  909.78125
292.3  919.03125
292.2  919
292.1  929.9375
292  919.71875
291.9  923.09375
291.8  915.71875
291.7  917.375
291.6  914.125
291.5  931.25
291.4  920.71875
291.3  934.90625
291.2  922.59375
291.1  933
291  931.71875
290.9  928.4375
290.8  937.625
290.7  937.78125
290.6  941.96875
290.5  949.125
290.4  951.0625
290.3  949.65625
290.2  952.71875
290.1  952.6875
290  954.6875
289.9  963.59375
289.8  963.9375
289.7  979.03125
289.6  985.71875
289.5  985.1875
289.4  986.96875
289.3  1001.4688
289.2  988.53125
289.1  979.25
289  1000.9688
288.9  1008.0938
288.8  1009.7813
288.7  1022.2813
288.6  1021.5938
288.5  1024.8438
288.4  1039.75
288.3  1051.25
288.2  1054.125
288.1  1061.4688
288  1069.5
287.9  1086.125
287.8  1108.1875
287.7  1115.9375
287.6  1131.625
287.5  1159.4063
287.4  1172.6563
287.3  1200.3438
287.2  1220.9063
287.1  1232.0313
287  1244.9375
286.9  1274.6875
286.8  1292.1563
286.7  1329
286.6  1336.5938
286.5  1350.875
286.4  1384.1875
286.3  1395.75
286.2  1433.4375
286.1  1412.5625
286  1430.2813
285.9  1429.6563
285.8  1421.25
285.7  1417.7813
285.6  1402
285.5  1371.9688
285.4  1344.7813
285.3  1330.9688
285.2  1292.0313
285.1  1261.4688
285  1219.7813
284.9  1193.625
284.8  1149.375
284.7  1120.9375
284.6  1091.7813
284.5  1062.3438
284.4  1032.625
284.3  1002.7188
284.2  999.78125
284.1  973.65625
284  961.875
283.9  944.25
283.8  935.15625
283.7  932.40625
283.6  926.28125
283.5  918.09375
283.4  916.40625
283.3  903.125
283.2  912.3125
283.1  898.84375
283  899.96875
282.9  895.875
282.8  905.4375
282.7  892.8125
282.6  896.4375
282.5  892.375
282.4  883.59375
282.3  902.375
282.2  884.875
282.1  893.15625
282  908.84375
281.9  887.25
281.8  876.78125
281.7  884.90625
281.6  885.4375
281.5  889.53125
281.4  890.4375
281.3  894.625
281.2  872.96875
281.1  884.125
281  888.53125
280.9  878.25
280.8  883.71875
280.7  890.53125
280.6  891.84375
280.5  881.1875
280.4  890.75
280.3  886.75
280.2  886.25
280.1  891.3125
280  880.125

# Region:            Ba3d
# Acquisition Date:  09/15/22 15:48:29 UTC
# Analysis Method:   XPS
# Analyzer:          Phoibos 100 R6
# Analyzer Lens:     LargeArea:1.5kV
# Analyzer Slit:     1:0.2x20\B:open
# Scan Mode:         FixedAnalyzerTransmission
# Curves/Scan:       1
# Values/Curve:      121
# Dwell Time:        0.8
# Excitation Energy: 1486.61
# Binding Energy:    789
# Pass Energy:       30
# Bias Voltage:      90
# Detector Voltage:  2600
# Eff. Workfunction: 4.309
# Source:            X-Ray Dummy
# Comment:           
#
# Cycle: 0
# Number of Scans: 5
#
# Cycle: 0, Curve: 0
# Acquisition Date: 09/15/22 15:48:29 UTC
#
# ColumnLabels: energy counts/s
#
789  4519.25
788.9  4520
788.8  4579
788.7  4550.75
788.6  4514.25
788.5  4572.5
788.4  4539
788.3  4558
788.2  4584.75
788.1  4504.75
788  4561.75
787.9  4545.25
787.8  4580.5
787.7  4590.5
787.6  4552.75
787.5  4512.25
787.4  4502
787.3  4604.25
787.2  4485.25
787.1  4512
787  4544
786.9  4609.25
786.8  4590.5
786.7  4500.5
786.6  4575
786.5  4592.5
786.4  4527.5
786.3  4583.75
786.2  4471.75
786.1  4558.5
786  4523.5
785.9  4512
785.8  4509.25
785.7  4523.75
785.6  4498
785.5  4546.75
785.4  4536.5
785.3  4515.75
785.2  4526.75
785.1  4507.5
785  4533.75
784.9  4499.25
784.8  4500.5
784.7  4565.5
784.6  4541.25
784.5  4544.5
784.4  4495
784.3  4568
784.2  4551
784.1  4525
784  4548
783.9  4545.5
783.8  4521.75
783.7  4531.5
783.6  4546.75
783.5  4614.5
783.4  4463.5
783.3  4555.5
783.2  4497.25
783.1  4566
783  4618
782.9  4544.75
782.8  4527.75
782.7  4556.75
782.6  4513.75
782.5  4528
782.4  4523.75
782.3  4498
782.2  4496.75
782.1  4502
782  4528
781.9  4544.25
781.8  4548.75
781.7  4533.25
781.6  4527.75
781.5  4479.25
781.4  4553.5
781.3  4515.25
781.2  4507.5
781.1  4529.25
781  4565.75
780.9  4508.25
780.8  4525.25
780.7  4469
780.6  4543
780.5  4539.75
780.4  4490.75
780.3  4612
780.2  4501.25
780.1  4497.5
780  4595.25
779.9  4490.25
779.8  4677.25
779.7  4514.5
779.6  4547
779.5  4594.25
779.4  4560.25
779.3  4528
779.2  4470
779.1  4499
779  4493.5
778.9  4501
778.8  4503.75
778.7  4529.5
778.6  4517
778.5  4513
778.4  4503.5
778.3  4479
778.2  4521.75
778.1  4487.25
778  4589.25
777.9  4561.5
777.8  4534.75
777.7  4512
777.6  4524.75
777.5  4546.25
777.4  4515.75
777.3  4534
777.2  4541.5
777.1  4545
777  4526

# Region:            Cl2p
# Acquisition Date:  09/15/22 16:35:11 UTC
# Analysis Method:   XPS
# Analyzer:          Phoibos 100 R6
# Analyzer Lens:     LargeArea:1.5kV
# Analyzer Slit:     1:0.2x20\B:open
# Scan Mode:         FixedAnalyzerTransmission
# Curves/Scan:       1
# Values/Curve:      111
# Dwell Time:        0.8
# Excitation Energy: 1486.61
# Binding Energy:    207
# Pass Energy:       30
# Bias Voltage:      90
# Detector Voltage:  2600
# Eff. Workfunction: 4.309
# Source:            X-Ray Dummy
# Comment:           
#
# Cycle: 0
# Number of Scans: 10
#
# Cycle: 0, Curve: 0
# Acquisition Date: 09/15/22 16:35:11 UTC
#
# ColumnLabels: energy counts/s
#
207  845.375
206.9  869.25
206.8  866.375
206.7  849
206.6  862.25
206.5  868.5
206.4  853.875
206.3  846.75
206.2  853.625
206.1  847.125
206  864.375
205.9  847.75
205.8  864.625
205.7  868.875
205.6  850
205.5  865.5
205.4  847
205.3  867.25
205.2  852.75
205.1  851.375
205  869.625
204.9  862.5
204.8  846.375
204.7  847.375
204.6  844.75
204.5  842.375
204.4  841.875
204.3  853.125
204.2  869.625
204.1  861.375
204  835.5
203.9  865.375
203.8  854
203.7  862
203.6  853.375
203.5  865.875
203.4  854.5
203.3  859.625
203.2  854.125
203.1  867.625
203  853.25
202.9  860.25
202.8  853.875
202.7  844.25
202.6  873.375
202.5  850.375
202.4  869.75
202.3  858.375
202.2  860.375
202.1  869.375
202  829.25
201.9  871.5
201.8  873.375
201.7  863
201.6  853.875
201.5  845.75
201.4  845.125
201.3  855.125
201.2  863.25
201.1  888.375
201  879.375
200.9  862.875
200.8  864.5
200.7  857
200.6  844.375
200.5  883.125
200.4  847.125
200.3  864.5
200.2  855.375
200.1  872.375
200  861.75
199.9  886.625
199.8  868.625
199.7  873
199.6  873.5
199.5  870
199.4  862
199.3  877.5
199.2  882.25
199.1  898.5
199  856.75
198.9  853
198.8  882.25
198.7  884.625
198.6  865.25
198.5  876.125
198.4  866.875
198.3  891
198.2  874.125
198.1  873.5
198  872.375
197.9  859.625
197.8  876
197.7  866.125
197.6  859.125
197.5  874.5
197.4  876.625
197.3  841.75
197.2  863.625
197.1  860.75
197  861.625
196.9  870.375
196.8  849.75
196.7  873
196.6  863.75
196.5  847.625
196.4  846.75
196.3  848
196.2  846.75
196.1  840.5
196  869.375

# Region:            overview
# Acquisition Date:  09/15/22 14:57:37 UTC
# Analysis Method:   XPS
# Analyzer:          Phoibos 100 R6
# Analyzer Lens:     MediumArea:1.5kV
# Analyzer Slit:     1:0.2x20\B:open
# Scan Mode:         FixedAnalyzerTransmission
# Curves/Scan:       1
# Values/Curve:      1205
# Dwell Time:        0.2
# Excitation Energy: 1486.61
# Binding Energy:    1200
# Pass Energy:       50
# Bias Voltage:      90
# Detector Voltage:  2600
# Eff. Workfunction: 4.309
# Source:            X-Ray Dummy
# Comment:           
#
# Cycle: 0
# Number of Scans: 1
#
# Cycle: 0, Curve: 0
# Acquisition Date: 09/15/22 14:57:37 UTC
#
# ColumnLabels: energy counts/s
#
1200  7950
1199  7975
1198  7925
1197  8100
1196  8110
1195  8130
1194  8240
1193  8380
1192  8025
1191  7960
1190  7920
1189  8090
1188  7565
1187  7745
1186  8120
1185  7585
1184  7440
1183  7415
1182  7290
1181  7375
1180  7360
1179  7725
1178  7475
1177  7545
1176  7480
1175  7635
1174  7490
1173  7780
1172  7430
1171  7115
1170  7465
1169  7265
1168  7340
1167  7265
1166  7285
1165  7615
1164  7190
1163  7085
1162  7460
1161  6905
1160  7195
1159  7135
1158  7150
1157  7145
1156  7800
1155  7295
1154  7165
1153  6795
1152  7270
1151  6930
1150  6915
1149  7075
1148  6460
1147  6750
1146  6575
1145  6510
1144  6700
1143  6990
1142  7070
1141  6635
1140  6320
1139  6635
1138  6495
1137  6235
1136  6325
1135  6380
1134  6080
1133  6380
1132  6225
1131  6200
1130  6315
1129  5910
1128  5995
1127  6045
1126  6225
1125  5670
1124  6065
1123  5925
1122  6385
1121  5870
1120  6160
1119  5900
1118  5835
1117  5730
1116  6070
1115  5745
1114  5885
1113  5875
1112  5615
1111  6105
1110  5715
1109  5915
1108  5885
1107  5790
1106  5795
1105  5790
1104  5960
1103  5475
1102  5765
1101  5920
1100  5760
1099  5670
1098  5705
1097  5615
1096  5545
1095  5590
1094  5965
1093  5520
1092  6035
1091  5860
1090  6015
1089  6475
1088  6555
1087  6985
1086  6875
1085  6370
1084  6385
1083  6090
1082  5865
1081  5600
1080  5790
1079  5955
1078  5650
1077  5305
1076  4640
1075  4815
1074  4610
1073  4615
1072  4775
1071  4555
1070  4700
1069  4435
1068  4440
1067  4755
1066  4765
1065  4370
1064  4525
1063  4790
1062  4675
1061  4235
1060  4910
1059  4720
1058  4335
1057  4240
1056  4215
1055  4160
1054  4200
1053  4360
1052  4330
1051  4275
1050  4485
1049  4215
1048  4225
1047  3855
1046  4140
1045  3945
1044  4145
1043  4115
1042  4325
1041  3650
1040  4235
1039  4070
1038  4210
1037  4025
1036  4265
1035  3930
1034  4015
1033  3805
1032  3990
1031  3940
1030  4050
1029  3940
1028  4125
1027  4110
1026  4040
1025  4175
1024  4180
1023  4230
1022  4110
1021  3995
1020  4025
1019  3835
1018  4220
1017  3915
1016  3990
1015  4040
1014  3880
1013  4000
1012  4240
1011  4235
1010  4030
1009  4250
1008  3835
1007  4050
1006  4035
1005  3915
1004  4270
1003  4035
1002  3805
1001  3955
1000  4015
999  4135
998  4385
997  3940
996  4125
995  4155
994  3870
993  4080
992  4310
991  3905
990  3855
989  3790
988  4340
987  3905
986  4000
985  4020
984  3745
983  4135
982  3900
981  4050
980  3940
979  3790
978  4100
977  4130
976  4385
975  4640
974  4150
973  4365
972  4175
971  3970
970  3620
969  3870
968  3655
967  3700
966  3815
965  3560
964  3575
963  3815
962  3660
961  3700
960  3475
959  3495
958  3525
957  3960
956  3490
955  3545
954  3520
953  3625
952  3555
951  3225
950  3565
949  3510
948  3645
947  3440
946  3495
945  3675
944  3700
943  3495
942  3480
941  3845
940  3805
939  3465
938  3450
937  3570
936  3730
935  3485
934  3330
933  3760
932  3315
931  3730
930  3600
929  3630
928  3755
927  3450
926  3745
925  3665
924  3485
923  3535
922  3725
921  3710
920  3785
919  3460
918  3560
917  3545
916  3495
915  3520
914  3540
913  3705
912  3650
911  3585
910  3250
909  3450
908  3350
907  3475
906  3240
905  3515
904  3570
903  3725
902  3550
901  3380
900  3830
899  3520
898  3615
897  3950
896  3555
895  3525
894  3610
893  3770
892  3735
891  3395
890  3820
889  3515
888  3395
887  3545
886  3545
885  3685
884  3655
883  3625
882  3605
881  3540
880  3830
879  3630
878  3515
877  3595
876  3660
875  3440
874  3660
873  3755
872  3770
871  3660
870  3670
869  3725
868  3795
867  3640
866  3535
865  3720
864  3295
863  3470
862  3445
861  3560
860  3485
859  3830
858  3645
857  3520
856  3580
855  3775
854  3725
853  3710
852  3595
851  3725
850  3780
849  3835
848  3635
847  3885
846  3675
845  3625
844  3795
843  3590
842  3850
841  3720
840  3650
839  3465
838  3730
837  3665
836  3850
835  4070
834  3800
833  3730
832  3705
831  3815
830  3555
829  3795
828  3720
827  4125
826  3685
825  3740
824  3680
823  4095
822  3630
821  4010
820  3700
819  3685
818  3960
817  3635
816  3615
815  3580
814  3610
813  3720
812  3470
811  3865
810  3745
809  3705
808  3875
807  3515
806  3820
805  3800
804  3810
803  3615
802  3760
801  3595
800  3625
799  3670
798  3895
797  3745
796  3585
795  3830
794  3690
793  3495
792  3820
791  3920
790  3720
789  3725
788  3865
787  3635
786  3665
785  3695
784  3645
783  3720
782  3695
781  3820
780  3685
779  3710
778  3770
777  4000
776  3720
775  3965
774  3820
773  3900
772  3485
771  4000
770  3815
769  3810
768  3885
767  4005
766  3960
765  3765
764  3870
763  3925
762  3815
761  4130
760  4180
759  3900
758  3990
757  4040
756  3730
755  3975
754  4055
753  3790
752  3820
751  3800
750  3835
749  3735
748  4025
747  3800
746  3730
745  3955
744  3830
743  3890
742  3980
741  4155
740  4275
739  3925
738  3735
737  3940
736  4025
735  4040
734  3940
733  4145
732  3865
731  3790
730  3990
729  3860
728  4030
727  4055
726  3850
725  4085
724  4075
723  4115
722  3695
721  4175
720  4200
719  4195
718  4520
717  4145
716  4290
715  3875
714  3995
713  4035
712  3945
711  3915
710  4080
709  4255
708  4115
707  4235
706  4875
705  4800
704  5255
703  4680
702  4140
701  4070
700  3790
699  4040
698  3915
697  3840
696  3940
695  3975
694  4170
693  3975
692  3935
691  4330
690  3990
689  4185
688  4005
687  4015
686  3940
685  3985
684  3895
683  4010
682  3655
681  4110
680  4080
679  3900
678  4050
677  3730
676  3850
675  3665
674  3550
673  3755
672  3600
671  4050
670  4280
669  4665
668  5395
667  5770
666  5735
665  5205
664  4795
663  3990
662  3655
661  3580
660  3565
659  3755
658  3825
657  3660
656  3725
655  3600
654  3490
653  3505
652  3240
651  3505
650  3285
649  3405
648  3420
647  3355
646  3345
645  3435
644  3310
643  3415
642  3405
641  3505
640  3405
639  3520
638  3490
637  3590
636  3475
635  3570
634  3325
633  3430
632  3315
631  3410
630  3305
629  3465
628  3300
627  3505
626  3485
625  3400
624  3285
623  3260
622  3335
621  3355
620  3315
619  3430
618  3350
617  3675
616  3380
615  3230
614  3415
613  3470
612  3655
611  3540
610  3545
609  3420
608  3425
607  3580
606  3420
605  3495
604  3695
603  3680
602  3635
601  3465
600  3275
599  3710
598  3500
597  3880
596  3570
595  3605
594  3695
593  3505
592  3700
591  3445
590  3610
589  3685
588  3635
587  3915
586  3405
585  3655
584  3840
583  3565
582  3865
581  3710
580  3515
579  3780
578  3605
577  3705
576  3535
575  3745
574  3635
573  3795
572  3525
571  3750
570  3730
569  3640
568  3780
567  3560
566  4015
565  3805
564  3735
563  3820
562  3825
561  3645
560  3925
559  4195
558  3560
557  3805
556  3845
555  3960
554  4075
553  3795
552  4015
551  4060
550  3905
549  3910
548  4145
547  4090
546  3795
545  3805
544  3545
543  3645
542  3840
541  3465
540  3480
539  3625
538  3610
537  3385
536  3735
535  4235
534  4200
533  4520
532  5490
531  6375
530  5600
529  4270
528  3825
527  3470
526  3515
525  3445
524  3585
523  3660
522  3705
521  3635
520  3635
519  3680
518  3570
517  3810
516  3405
515  3865
514  3630
513  3600
512  3835
511  3715
510  3615
509  3765
508  3610
507  3700
506  3575
505  3525
504  3660
503  3400
502  3670
501  3715
500  3565
499  3700
498  3860
497  4070
496  4345
495  4205
494  3750
493  3780
492  3650
491  3615
490  3835
489  3795
488  4710
487  5000
486  4085
485  3485
484  3760
483  3625
482  3800
481  3255
480  3580
479  3470
478  3730
477  3515
476  3645
475  3550
474  3885
473  3860
472  3515
471  3540
470  3840
469  3675
468  3795
467  3395
466  3580
465  3605
464  3375
463  3755
462  3615
461  3350
460  3310
459  2955
458  3085
457  2860
456  3235
455  4145
454  7435
453  9410
452  7970
451  4050
450  2650
449  2250
448  3455
447  5690
446  10345
445  12340
444  7460
443  3410
442  2270
441  1845
440  1890
439  1555
438  1725
437  1840
436  2295
435  2020
434  1820
433  1620
432  1395
431  1420
430  1230
429  1305
428  1295
427  1270
426  1235
425  1225
424  1235
423  1340
422  1165
421  1385
420  1145
419  1300
418  1345
417  1135
416  1265
415  1335
414  1145
413  1235
412  1275
411  1085
410  1195
409  1230
408  1295
407  1330
406  1275
405  1240
404  1195
403  1090
402  1160
401  1375
400  1290
399  1335
398  1275
397  1060
396  1115
395  1150
394  1275
393  1300
392  1160
391  1305
390  1240
389  1320
388  1205
387  1070
386  1280
385  1035
384  1235
383  1480
382  1315
381  1270
380  1205
379  1180
378  1395
377  1250
376  1240
375  1190
374  1145
373  1135
372  1195
371  1175
370  1155
369  1165
368  1090
367  1150
366  1165
365  1170
364  1170
363  1270
362  1070
361  1085
360  1175
359  1030
358  1055
357  1175
356  1160
355  1280
354  1190
353  1150
352  1085
351  1095
350  1305
349  1050
348  1190
347  1315
346  1275
345  1215
344  1045
343  1295
342  1085
341  1190
340  1095
339  1255
338  1225
337  1195
336  1075
335  1215
334  1315
333  1140
332  1160
331  1260
330  1120
329  1295
328  1190
327  1255
326  1190
325  1110
324  1060
323  1075
322  1265
321  1235
320  1210
319  1255
318  1205
317  1080
316  1205
315  1080
314  1295
313  1100
312  1275
311  1335
310  1245
309  1205
308  1205
307  1305
306  1295
305  1405
304  1065
303  1235
302  1300
301  1295
300  1300
299  1135
298  1230
297  1120
296  1220
295  1345
294  1140
293  1155
292  1185
291  1045
290  1230
289  1295
288  1565
287  1610
286  1855
285  1620
284  1365
283  1120
282  1225
281  1290
280  1240
279  1320
278  1215
277  1105
276  1160
275  1270
274  1220
273  1195
272  1235
271  1110
270  1150
269  1220
268  1260
267  1145
266  1060
265  1205
264  1260
263  1080
262  1155
261  1325
260  1150
259  1325
258  1170
257  1225
256  1140
255  1300
254  1175
253  1215
252  1200
251  1275
250  1255
249  1200
248  1250
247  1280
246  1210
245  1180
244  1265
243  1225
242  1285
241  1200
240  1135
239  1165
238  1240
237  1255
236  1280
235  1150
234  1235
233  1140
232  1125
231  1455
230  1380
229  1140
228  1165
227  1260
226  1175
225  1370
224  1290
223  1065
222  1190
221  1315
220  1175
219  1330
218  1190
217  1130
216  1180
215  1255
214  1265
213  1050
212  1180
211  1310
210  1275
209  1200
208  1165
207  1085
206  1400
205  1205
204  1190
203  1280
202  1225
201  1435
200  1265
199  1410
198  1170
197  1220
196  1315
195  1285
194  1260
193  1340
192  1160
191  1235
190  1270
189  1305
188  1255
187  1340
186  1240
185  1420
184  1290
183  1300
182  1170
181  1215
180  1350
179  1145
178  1490
177  1345
176  1385
175  1235
174  1295
173  1320
172  1165
171  1230
170  1290
169  1435
168  1345
167  1120
166  1275
165  1360
164  1300
163  1345
162  1260
161  1270
160  1260
159  1150
158  1310
157  1205
156  1200
155  1245
154  1295
153  1460
152  1290
151  1210
150  1250
149  1295
148  1360
147  1185
146  1275
145  1370
144  1260
143  1240
142  1245
141  1185
140  1330
139  1380
138  1405
137  1435
136  1150
135  1200
134  1235
133  1290
132  1205
131  1255
130  1215
129  1430
128  1315
127  1400
126  1445
125  1470
124  1445
123  1515
122  1425
121  1390
120  1345
119  1345
118  1415
117  1165
116  1240
115  1395
114  1280
113  1385
112  1205
111  1225
110  1310
109  1365
108  1185
107  1295
106  1285
105  1315
104  1225
103  1335
