# Created by:        SpecsLab Prodigy, Version 4.60.2-r85849 
#
# XY-Serializer Export Settings:
#   Comment Prefix:           #
#   Output meta data:         yes
#   Energy Axis:              Binding Energy
#   Count Rate:               Counts per Second
#   Separate Scan Data:       no
#   Separate Channel Data:    no
#   External Channel Data:    yes
#   Transmission Function:    no
#   ErrorBar:                 no
#   Operation Results:        yes
#   Time Zone Format:         UTC
#
# Group:             Spectrum Group
#
# Region:            overview
# Acquisition Date:  08/31/22 13:21:06 UTC
# Analysis Method:   XPS
# Analyzer:          Phoibos 100 R6
# Analyzer Lens:     MediumArea:1.5kV
# Analyzer Slit:     1:0.2x20\B:open
# Scan Mode:         FixedAnalyzerTransmission
# Curves/Scan:       1
# Values/Curve:      1205
# Dwell Time:        0.2
# Excitation Energy: 1486.61
# Binding Energy:    1200
# Pass Energy:       50
# Bias Voltage:      90
# Detector Voltage:  2600
# Eff. Workfunction: 4.309
# Source:            X-Ray Dummy
# Comment:           
#
# Cycle: 0
# Number of Scans: 1
#
# Cycle: 0, Curve: 0
# Acquisition Date: 08/31/22 13:21:06 UTC
#
# ColumnLabels: energy counts/s
#
1200  9395
1199  9385
1198  9715
1197  9185
1196  9475
1195  9325
1194  9325
1193  9885
1192  9465
1191  9395
1190  9975
1189  9290
1188  9420
1187  9170
1186  9040
1185  9190
1184  9390
1183  9120
1182  9040
1181  8700
1180  9010
1179  9175
1178  8530
1177  8805
1176  9050
1175  8835
1174  8540
1173  8525
1172  8860
1171  8200
1170  8790
1169  8585
1168  8710
1167  8455
1166  8800
1165  8820
1164  8815
1163  8240
1162  8995
1161  8720
1160  8270
1159  8410
1158  8450
1157  8360
1156  8030
1155  8340
1154  8390
1153  8200
1152  8450
1151  7870
1150  8155
1149  8240
1148  8210
1147  8270
1146  8135
1145  8025
1144  8135
1143  7825
1142  8015
1141  7755
1140  7970
1139  7610
1138  7480
1137  7525
1136  7505
1135  7410
1134  7180
1133  7120
1132  6745
1131  7080
1130  6970
1129  7075
1128  7120
1127  7295
1126  7010
1125  6840
1124  7120
1123  6580
1122  7095
1121  7030
1120  6920
1119  7035
1118  6655
1117  6770
1116  7170
1115  6850
1114  6780
1113  6760
1112  6915
1111  6870
1110  6960
1109  6850
1108  6945
1107  6635
1106  7150
1105  6730
1104  7000
1103  6835
1102  6655
1101  6685
1100  6655
1099  6910
1098  6380
1097  6710
1096  6875
1095  6500
1094  6680
1093  6310
1092  7150
1091  6910
1090  7010
1089  7660
1088  7500
1087  8120
1086  8545
1085  8085
1084  7770
1083  7340
1082  6765
1081  6880
1080  7100
1079  6540
1078  6125
1077  5800
1076  5700
1075  5725
1074  5505
1073  5200
1072  5345
1071  5145
1070  4915
1069  5270
1068  5450
1067  5330
1066  5315
1065  5235
1064  5175
1063  5215
1062  5220
1061  5240
1060  5395
1059  5265
1058  4950
1057  4820
1056  4905
1055  4765
1054  4895
1053  5075
1052  4690
1051  5095
1050  4685
1049  4440
1048  4465
1047  4745
1046  4600
1045  4415
1044  4510
1043  4910
1042  4485
1041  4350
1040  4815
1039  4715
1038  4710
1037  4715
1036  4480
1035  4460
1034  4545
1033  4780
1032  4295
1031  4465
1030  4680
1029  4720
1028  4690
1027  4515
1026  4655
1025  4620
1024  4700
1023  4300
1022  4835
1021  4655
1020  4310
1019  4510
1018  4570
1017  4605
1016  4495
1015  4495
1014  4650
1013  4910
1012  4650
1011  4660
1010  4680
1009  4760
1008  4640
1007  4670
1006  4660
1005  4400
1004  4230
1003  4340
1002  4640
1001  4695
1000  4665
999  4655
998  4615
997  4385
996  4735
995  4720
994  4625
993  4770
992  4535
991  4320
990  4445
989  4600
988  4495
987  4405
986  4270
985  4520
984  4525
983  4505
982  4350
981  4630
980  4350
979  4410
978  4650
977  4980
976  4815
975  5170
974  5300
973  4845
972  4785
971  4310
970  4625
969  4495
968  4375
967  4225
966  4110
965  3925
964  3990
963  3955
962  4075
961  3990
960  4015
959  4150
958  4035
957  4020
956  4225
955  4145
954  4305
953  3865
952  4060
951  3960
950  3840
949  4195
948  3680
947  3950
946  3980
945  4205
944  3830
943  3970
942  4150
941  3805
940  4325
939  3935
938  4205
937  3960
936  4190
935  3755
934  3910
933  4085
932  4080
931  4050
930  3950
929  4090
928  4080
927  3965
926  4025
925  3970
924  4115
923  3760
922  4065
921  4080
920  3865
919  3945
918  3900
917  4040
916  4050
915  4045
914  3955
913  3960
912  3945
911  4030
910  4225
909  4050
908  4030
907  3810
906  4105
905  4255
904  4095
903  4005
902  4120
901  3770
900  4145
899  4310
898  3885
897  3920
896  4255
895  4055
894  4205
893  4085
892  3930
891  3995
890  3805
889  4120
888  4335
887  4170
886  4280
885  4090
884  3960
883  4060
882  4040
881  3915
880  4255
879  4085
878  3910
877  3875
876  3875
875  3845
874  3900
873  4040
872  4260
871  4170
870  4060
869  4370
868  4200
867  4295
866  3915
865  3865
864  4050
863  4210
862  4125
861  4035
860  4085
859  4295
858  4120
857  4170
856  4035
855  3870
854  4235
853  4080
852  4190
851  4115
850  4060
849  4150
848  4050
847  3870
846  3950
845  4210
844  4155
843  4240
842  3785
841  3905
840  4305
839  4365
838  4295
837  3985
836  3960
835  4490
834  4165
833  4400
832  4415
831  4435
830  4335
829  4230
828  4650
827  4490
826  4210
825  4420
824  4520
823  4040
822  4265
821  4235
820  3925
819  4255
818  4255
817  3845
816  4080
815  4145
814  4225
813  4150
812  3955
811  4015
810  4045
809  3990
808  3955
807  4080
806  4085
805  4030
804  3885
803  3970
802  3775
801  3780
800  4300
799  4135
798  4130
797  3930
796  4270
795  4345
794  4430
793  3970
792  4375
791  4085
790  4115
789  4110
788  4105
787  4125
786  4120
785  4145
784  4035
783  4210
782  4420
781  4330
780  4275
779  3945
778  4300
777  3990
776  4225
775  4080
774  4155
773  4275
772  4315
771  4240
770  3930
769  4210
768  4015
767  4035
766  3965
765  4040
764  4355
763  4560
762  4085
761  4615
760  4230
759  4545
758  4575
757  4335
756  4375
755  4675
754  4370
753  4240
752  4305
751  4285
750  4425
749  4440
748  4220
747  4450
746  4480
745  4360
744  4610
743  4010
742  4285
741  4475
740  4420
739  4510
738  4560
737  4355
736  4510
735  4330
734  4625
733  4230
732  4450
731  4250
730  4230
729  4125
728  4885
727  4540
726  4125
725  4190
724  4510
723  4430
722  4720
721  4530
720  4610
719  4655
718  4770
717  4690
716  4830
715  4595
714  4205
713  4530
712  4465
711  4480
710  4455
709  4620
708  4595
707  4730
706  5315
705  5915
704  5730
703  5110
702  4970
701  4525
700  4625
699  4010
698  4490
697  4270
696  4400
695  4465
694  4385
693  4585
692  4460
691  4340
690  4505
689  4315
688  4420
687  4430
686  4460
685  4280
684  4500
683  4255
682  4500
681  4310
680  4280
679  4305
678  4080
677  4020
676  3995
675  4020
674  4090
673  3880
672  4500
671  4525
670  4610
669  5220
668  6075
667  6505
666  6605
665  6040
664  5210
663  4900
662  4060
661  4060
660  4035
659  3790
658  4105
657  3770
656  3990
655  4010
654  3720
653  4050
652  3570
651  3470
650  3580
649  3585
648  3515
647  3615
646  3650
645  3610
644  3535
643  3610
642  3610
641  3785
640  3900
639  3625
638  3475
637  3650
636  3475
635  3505
634  3875
633  3510
632  3880
631  3680
630  3570
629  3575
628  3490
627  3615
626  3875
625  3725
624  3715
623  3870
622  3705
621  3585
620  3740
619  3650
618  3760
617  3710
616  3860
615  3990
614  3940
613  3695
612  3770
611  3695
610  3810
609  3815
608  3555
607  3780
606  3505
605  3675
604  4090
603  3695
602  3950
601  3960
600  3945
599  3900
598  3840
597  4215
596  3920
595  4045
594  4100
593  4015
592  3915
591  3780
590  3940
589  3935
588  3865
587  3745
586  3810
585  3860
584  3905
583  3880
582  3945
581  3710
580  4035
579  3815
578  4170
577  3995
576  4070
575  4030
574  4015
573  4110
572  3865
571  4180
570  3900
569  4050
568  3980
567  4260
566  4160
565  4290
564  4040
563  4110
562  3930
561  4240
560  4285
559  3955
558  4150
557  4435
556  4305
555  4190
554  4065
553  4235
552  3985
551  4330
550  4375
549  4160
548  4675
547  4320
546  4085
545  4110
544  4060
543  3840
542  3935
541  4270
540  3995
539  4215
538  3945
537  4010
536  4100
535  4015
534  4555
533  5105
532  6415
531  7075
530  6120
529  4760
528  4025
527  4025
526  3860
525  3885
524  3680
523  3885
522  3895
521  4225
520  3830
519  4060
518  4015
517  3820
516  3905
515  3765
514  3980
513  4060
512  3905
511  3770
510  3995
509  3800
508  3950
507  4250
506  3885
505  3890
504  3810
503  4065
502  3830
501  3925
500  3855
499  3780
498  4070
497  4450
496  4855
495  4625
494  4005
493  3690
492  3575
491  3740
490  3595
489  4135
488  5190
487  5145
486  4755
485  4285
484  4045
483  3715
482  3995
481  3840
480  3960
479  3930
478  3745
477  3925
476  4000
475  3940
474  4075
473  3915
472  4180
471  4175
470  3890
469  4105
468  4150
467  3895
466  4090
465  4120
464  3980
463  3850
462  3520
461  3615
460  3275
459  3515
458  3155
457  3435
456  3725
455  4535
454  7620
453  10970
452  9790
451  4585
450  3210
449  2630
448  3615
447  6475
446  12200
445  14400
444  8730
443  3695
442  2650
441  2215
440  1980
439  1910
438  1635
437  1850
436  2485
435  2360
434  1950
433  1940
432  1615
431  1370
430  1415
429  1325
428  1430
427  1265
426  1395
425  1245
424  1390
423  1320
422  1435
421  1330
420  1515
419  1330
418  1370
417  1300
416  1345
415  1130
414  1360
413  1300
412  1240
411  1305
410  1335
409  1215
408  1425
407  1285
406  1225
405  1410
404  1335
403  1420
402  1325
401  1355
400  1305
399  1365
398  1270
397  1315
396  1320
395  1360
394  1225
393  1300
392  1410
391  1240
390  1265
389  1280
388  1295
387  1395
386  1430
385  1305
384  1375
383  1295
382  1340
381  1340
380  1300
379  1290
378  1195
377  1365
376  1255
375  1435
374  1335
373  1255
372  1335
371  1255
370  1290
369  1300
368  1305
367  1275
366  1115
365  1245
364  1190
363  1235
362  1425
361  1250
360  1250
359  1350
358  1140
357  1135
356  1220
355  1230
354  1360
353  1385
352  1235
351  1245
350  1250
349  1200
348  1200
347  1255
346  1290
345  1290
344  1375
343  1170
342  1235
341  1345
340  1185
339  1145
338  1220
337  1385
336  1120
335  1270
334  1190
333  1255
332  1195
331  1195
330  1315
329  1200
328  1200
327  1395
326  1235
325  1220
324  1320
323  1275
322  1170
321  1245
320  1300
319  1295
318  1170
317  1290
316  1330
315  1365
314  1315
313  1290
312  1320
311  1320
310  1230
309  1270
308  1340
307  1345
306  1310
305  1340
304  1390
303  1270
302  1155
301  1320
300  1355
299  1290
298  1195
297  1385
296  1320
295  1215
294  1245
293  1485
292  1385
291  1315
290  1325
289  1360
288  1420
287  1410
286  1825
285  1805
284  1515
283  1400
282  1260
281  1160
280  1330
279  1375
278  1150
277  1270
276  1300
275  1365
274  1290
273  1180
272  1365
271  1165
270  1275
269  1355
268  1305
267  1275
266  1385
265  1370
264  1350
263  1220
262  1210
261  1430
260  1545
259  1255
258  1430
257  1290
256  1240
255  1300
254  1230
253  1220
252  1445
251  1315
250  1240
249  1335
248  1160
247  1270
246  1395
245  1365
244  1285
243  1325
242  1365
241  1405
240  1500
239  1195
238  1290
237  1220
236  1265
235  1300
234  1250
233  1340
232  1305
231  1505
230  1385
229  1365
228  1325
227  1410
226  1345
225  1280
224  1425
223  1310
222  1280
221  1425
220  1325
219  1340
218  1225
217  1195
216  1480
215  1490
214  1390
213  1390
212  1415
211  1430
210  1205
209  1285
208  1335
207  1395
206  1285
205  1305
204  1205
203  1475
202  1145
201  1435
200  1365
199  1300
198  1285
197  1335
196  1250
195  1400
194  1190
193  1125
192  1370
191  1390
190  1375
189  1205
188  1415
187  1405
186  1395
185  1355
184  1375
183  1425
182  1435
181  1345
180  1375
179  1470
178  1370
177  1455
176  1400
175  1230
174  1285
173  1290
172  1380
171  1495
170  1495
169  1390
168  1335
167  1345
166  1365
165  1410
164  1465
163  1400
162  1270
161  1375
160  1335
159  1405
158  1485
157  1420
156  1485
155  1460
154  1560
153  1395
152  1425
151  1480
150  1415
149  1315
148  1305
147  1345
146  1310
145  1405
144  1375
143  1335
142  1375
141  1355
140  1395
139  1400
138  1425
137  1385
136  1540
135  1270
134  1305
133  1340
132  1330
131  1525
130  1605
129  1405
128  1420
127  1595
126  1675
125  1415
124  1580
123  1655
122  1660
121  1500
120  1485
119  1370
118  1535
117  1415
116  1370
115  1340
114  1250
113  1465
112  1360
111  1235
110  1640
109  1375
108  1485
107  1350
106  1560
105  1430
104  1345
103  1535
102  1440
101  1555
100  1500
99  1400
98  1575
97  1420
96  1650
95  1580
94  1470
93  1475
92  1510
91  1590
90  1505
89  1510
88  1410
87  1525
86  1535
85  1500
84  1505
83  1590
82  1550
81  1775
80  1480
79  1485
78  1645
77  1500
76  1490
75  1330
74  1235
73  1310
72  1350
71  1145
70  1190
69  1190
68  1250
67  1085
66  1160
65  995
64  1085
63  1140
62  960
61  1130
60  1165
59  1005
58  915
57  1090
56  1050
55  1150
54  1220
53  1050
52  1045
51  1080
50  1270
49  1065
48  1080
47  1115
46  1130
45  1120
44  1010
43  945
42  1150
41  1040
40  1205
39  1070
38  1065
37  1025
36  1005
35  1160
34  1045
33  1200
32  1100
31  1030
30  1050
29  1105
28  1330
27  1300
26  1270
25  1030
24  1115
23  1080
22  1135
21  1365
20  2350
19  3455
18  2910
17  1740
16  1040
15  665
14  745
13  710
12  780
11  840
10  995
9  1090
8  1045
7  945
6  950
5  810
4  750
3  625
2  655
1  685
-2.2737368e-013  745
-1  520
-2  645
-3  605
-4  640

# Region:            C1s
# Acquisition Date:  08/31/22 14:00:26 UTC
# Analysis Method:   XPS
# Analyzer:          Phoibos 100 R6
# Analyzer Lens:     LargeArea:1.5kV
# Analyzer Slit:     1:0.2x20\B:open
# Scan Mode:         FixedAnalyzerTransmission
# Curves/Scan:       1
# Values/Curve:      151
# Dwell Time:        0.8
# Excitation Energy: 1486.61
# Binding Energy:    295
# Pass Energy:       30
# Bias Voltage:      90
# Detector Voltage:  2600
# Eff. Workfunction: 4.309
# Source:            X-Ray Dummy
# Comment:           
#
# Cycle: 0
# Number of Scans: 5
#
# Cycle: 0, Curve: 0
# Acquisition Date: 08/31/22 14:00:26 UTC
#
# ColumnLabels: energy counts/s
#
295  972.5
294.9  959.25
294.8  952.25
294.7  966.25
294.6  951.75
294.5  966.75
294.4  952.75
294.3  950.25
294.2  938.5
294.1  958.5
294  962
293.9  949.5
293.8  976.75
293.7  936.25
293.6  966.75
293.5  972.25
293.4  915
293.3  933
293.2  1007
293.1  971.5
293  977.25
292.9  978.25
292.8  957
292.7  946.5
292.6  934
292.5  941
292.4  953.25
292.3  955.25
292.2  959.5
292.1  970.25
292  920.75
291.9  947.5
291.8  967.25
291.7  935.75
291.6  969.5
291.5  960.75
291.4  941.75
291.3  955.75
291.2  964.5
291.1  978.25
291  1002.5
290.9  980.5
290.8  982
290.7  967.5
290.6  991.25
290.5  982.25
290.4  997.5
290.3  1012.5
290.2  969.25
290.1  953.75
290  1024.25
289.9  1000
289.8  998.25
289.7  1012
289.6  1012.75
289.5  1004
289.4  1001.75
289.3  1015.75
289.2  1022.5
289.1  1004.5
289  998
288.9  984
288.8  1003.5
288.7  997.25
288.6  1000.5
288.5  1006.25
288.4  1023.75
288.3  996.5
288.2  985.75
288.1  999.25
288  1047.75
287.9  1046.5
287.8  1069.75
287.7  1080
287.6  1051
287.5  1106.5
287.4  1112.25
287.3  1115.75
287.2  1114.5
287.1  1129
287  1150.75
286.9  1178.25
286.8  1223.25
286.7  1226.25
286.6  1254.75
286.5  1251
286.4  1256.25
286.3  1281
286.2  1339.25
286.1  1342
286  1355
285.9  1355
285.8  1385.25
285.7  1405.5
285.6  1409.25
285.5  1356.75
285.4  1413.5
285.3  1410.25
285.2  1346.25
285.1  1347.75
285  1373.5
284.9  1313
284.8  1278.75
284.7  1242.25
284.6  1239.25
284.5  1179
284.4  1149.5
284.3  1119.5
284.2  1115.25
284.1  1071.5
284  1082.25
283.9  1042.75
283.8  1028.5
283.7  1031.5
283.6  1017.5
283.5  952.25
283.4  946.5
283.3  945.25
283.2  952.75
283.1  963.25
283  973.5
282.9  947
282.8  936.75
282.7  941.25
282.6  962
282.5  955.5
282.4  958.5
282.3  958
282.2  943.5
282.1  922.75
282  959.25
281.9  953
281.8  946.75
281.7  935.25
281.6  949.25
281.5  950.25
281.4  950.25
281.3  939.25
281.2  942.75
281.1  949.5
281  910
280.9  917.5
280.8  942.5
280.7  952.25
280.6  935.25
280.5  920.25
280.4  965.25
280.3  946
280.2  946.5
280.1  928.25
280  971.25

# Region:            N1s
# Acquisition Date:  08/31/22 14:46:49 UTC
# Analysis Method:   XPS
# Analyzer:          Phoibos 100 R6
# Analyzer Lens:     LargeArea:1.5kV
# Analyzer Slit:     1:0.2x20\B:open
# Scan Mode:         FixedAnalyzerTransmission
# Curves/Scan:       1
# Values/Curve:      121
# Dwell Time:        0.8
# Excitation Energy: 1486.61
# Binding Energy:    409
# Pass Energy:       30
# Bias Voltage:      90
# Detector Voltage:  2600
# Eff. Workfunction: 4.309
# Source:            X-Ray Dummy
# Comment:           
#
# Cycle: 0
# Number of Scans: 25
#
# Cycle: 0, Curve: 0
# Acquisition Date: 08/31/22 14:46:49 UTC
#
# ColumnLabels: energy counts/s
#
409  1047.2
408.9  1034.1
408.8  1042.6
408.7  1035.1
408.6  1071.55
408.5  1044.45
408.4  1037.7
408.3  1044.6
408.2  1045.25
408.1  1049.55
408  1030.45
407.9  1050
407.8  1062.6
407.7  1029.25
407.6  1041.4
407.5  1035.8
407.4  1040.2
407.3  1039
407.2  1042.35
407.1  1050.5
407  1046.35
406.9  1044.55
406.8  1047.45
406.7  1035.6
406.6  1043.2
406.5  1044
406.4  1032.05
406.3  1034.55
406.2  1032.65
406.1  1047.55
406  1038.55
405.9  1046.6
405.8  1045.05
405.7  1038.35
405.6  1039.7
405.5  1046.7
405.4  1044.5
405.3  1039.3
405.2  1035.25
405.1  1037.55
405  1063.4
404.9  1045.2
404.8  1044.4
404.7  1040.5
404.6  1029.15
404.5  1042.4
404.4  1060.65
404.3  1032.95
404.2  1046.8
404.1  1045.7
404  1031.45
403.9  1046.55
403.8  1026.3
403.7  1049.95
403.6  1048.8
403.5  1041.15
403.4  1041.35
403.3  1037.2
403.2  1043.1
403.1  1036.8
403  1046
402.9  1040.75
402.8  1043
402.7  1056.8
402.6  1042.7
402.5  1048.1
402.4  1080.55
402.3  1045.2
402.2  1048
402.1  1043.1
402  1052.8
401.9  1046.3
401.8  1048.2
401.7  1062.55
401.6  1047.65
401.5  1050.85
401.4  1050.85
401.3  1054.5
401.2  1066.4
401.1  1051.8
401  1074.75
400.9  1077.2
400.8  1060.1
400.7  1047.35
400.6  1056.7
400.5  1056.8
400.4  1051.55
400.3  1057.95
400.2  1054.55
400.1  1046.1
400  1053.9
399.9  1053.8
399.8  1047.85
399.7  1037.45
399.6  1043.6
399.5  1041.6
399.4  1043.7
399.3  1050.95
399.2  1031.9
399.1  1032.7
399  1050.35
398.9  1038.35
398.8  1051.75
398.7  1030.5
398.6  1036.1
398.5  1039.25
398.4  1041.05
398.3  1038.1
398.2  1032.3
398.1  1044.55
398  1046
397.9  1044.05
397.8  1031.2
397.7  1031.5
397.6  1037.9
397.5  1035.6
397.4  1031.75
397.3  1031.05
397.2  1028.1
397.1  1036.95
397  1031.35

# Region:            Si2p
# Acquisition Date:  08/31/22 14:30:31 UTC
# Analysis Method:   XPS
# Analyzer:          Phoibos 100 R6
# Analyzer Lens:     LargeArea:1.5kV
# Analyzer Slit:     1:0.2x20\B:open
# Scan Mode:         FixedAnalyzerTransmission
# Curves/Scan:       1
# Values/Curve:      71
# Dwell Time:        0.8
# Excitation Energy: 1486.61
# Binding Energy:    107
# Pass Energy:       30
# Bias Voltage:      90
# Detector Voltage:  2600
# Eff. Workfunction: 4.309
# Source:            X-Ray Dummy
# Comment:           
#
# Cycle: 0
# Number of Scans: 15
#
# Cycle: 0, Curve: 0
# Acquisition Date: 08/31/22 14:30:31 UTC
#
# ColumnLabels: energy counts/s
#
107  948.08333
106.9  932.75
106.8  941.33333
106.7  948.91667
106.6  946.33333
106.5  948.91667
106.4  935.83333
106.3  956.5
106.2  938.66667
106.1  947.66667
106  957.33333
105.9  947.83333
105.8  946.41667
105.7  942
105.6  936.91667
105.5  949.33333
105.4  945.83333
105.3  947.58333
105.2  964.41667
105.1  942.33333
105  934.58333
104.9  953.08333
104.8  959.25
104.7  940.83333
104.6  943.25
104.5  954.41667
104.4  961.83333
104.3  958.58333
104.2  943.41667
104.1  952
104  965.91667
103.9  946.16667
103.8  946.5
103.7  964.5
103.6  958.91667
103.5  956.25
103.4  958.75
103.3  968.91667
103.2  954.25
103.1  950.41667
103  949.66667
102.9  952.33333
102.8  961.25
102.7  960
102.6  963.83333
102.5  953.08333
102.4  974.33333
102.3  953.91667
102.2  941.33333
102.1  970.66667
102  967.75
101.9  963.83333
101.8  939
101.7  963.08333
101.6  941.75
101.5  953
101.4  955.16667
101.3  950.16667
101.2  945.25
