# Created by:        SpecsLab Prodigy, Version 4.60.2-r85849 
#
# XY-Serializer Export Settings:
#   Comment Prefix:           #
#   Output meta data:         yes
#   Energy Axis:              Binding Energy
#   Count Rate:               Counts per Second
#   Separate Scan Data:       no
#   Separate Channel Data:    no
#   External Channel Data:    yes
#   Transmission Function:    no
#   ErrorBar:                 no
#   Operation Results:        yes
#   Time Zone Format:         UTC
#
# Group:             xps
#
# Region:            C 1s
# Acquisition Date:  08/30/22 00:41:41 UTC
# Analysis Method:   XPS
# Analyzer:          Phoibos 100 R6
# Analyzer Lens:     LargeArea:1.5kV
# Analyzer Slit:     5:7x20\B:open
# Scan Mode:         FixedAnalyzerTransmission
# Curves/Scan:       1
# Values/Curve:      151
# Dwell Time:        0.8
# Excitation Energy: 1486.61
# Binding Energy:    295
# Pass Energy:       30
# Bias Voltage:      90
# Detector Voltage:  2600
# Eff. Workfunction: 4.309
# Source:            X-Ray Dummy
# Comment:           
#
# Cycle: 0
# Number of Scans: 50
#
# Cycle: 0, Curve: 0
# Acquisition Date: 08/30/22 00:41:41 UTC
#
# ColumnLabels: energy counts/s
#
295  896.1
294.9  903.3
294.8  898.55
294.7  904.35
294.6  910.1
294.5  893.975
294.4  900.5
294.3  911.8
294.2  904.9
294.1  908.875
294  903.825
293.9  898.65
293.8  902.65
293.7  901.2
293.6  908.25
293.5  905.325
293.4  906.5
293.3  893.5
293.2  898.35
293.1  910.675
293  908.175
292.9  901.025
292.8  909.675
292.7  908.425
292.6  907.725
292.5  900.5
292.4  910.95
292.3  896.625
292.2  906.825
292.1  908.65
292  906.25
291.9  909.125
291.8  908.225
291.7  917.3
291.6  903.35
291.5  920.45
291.4  905.675
291.3  911.3
291.2  913.4
291.1  918.425
291  905.2
290.9  911.7
290.8  906.55
290.7  916.75
290.6  907.15
290.5  913.7
290.4  912.375
290.3  913.525
290.2  914.1
290.1  917.25
290  922.375
289.9  903.375
289.8  912.275
289.7  910.6
289.6  910.175
289.5  907.675
289.4  914.2
289.3  919.075
289.2  908.95
289.1  914.075
289  915.45
288.9  924.625
288.8  914.55
288.7  918.45
288.6  912.4
288.5  917.675
288.4  919.5
288.3  921.975
288.2  914.65
288.1  928.9
288  913.2
287.9  913.55
287.8  922.475
287.7  920.1
287.6  920.375
287.5  930.3
287.4  931.225
287.3  922.625
287.2  926.85
287.1  923.475
287  937.975
286.9  928.45
286.8  935.075
286.7  930.525
286.6  943.75
286.5  940.925
286.4  949.775
286.3  953.35
286.2  955.45
286.1  959.975
286  966.4
285.9  977.45
285.8  973.5
285.7  983.725
285.6  1001.625
285.5  1005.55
285.4  1008.95
285.3  1014.425
285.2  1028.425
285.1  1034.55
285  1040.975
284.9  1046.15
284.8  1048.75
284.7  1056.725
284.6  1057.175
284.5  1059.775
284.4  1060.4
284.3  1049.2
284.2  1042.75
284.1  1031.8
284  1030.825
283.9  1014.9
283.8  1008.275
283.7  987.95
283.6  978.075
283.5  961.275
283.4  943.125
283.3  952.1
283.2  940.825
283.1  927.525
283  923.725
282.9  912.25
282.8  909.825
282.7  899.325
282.6  896.275
282.5  902.95
282.4  894.875
282.3  893.675
282.2  890.3
282.1  890.025
282  891.45
281.9  892.65
281.8  888.95
281.7  884.95
281.6  898
281.5  881.675
281.4  889.75
281.3  884.8
281.2  889.85
281.1  883.775
281  892.475
280.9  890.825
280.8  888.25
280.7  892.85
280.6  883.95
280.5  881.45
280.4  885.3
280.3  890.025
280.2  886.8
280.1  882.1
280  892.925

# Region:            O 1s
# Acquisition Date:  08/30/22 00:44:00 UTC
# Analysis Method:   XPS
# Analyzer:          Phoibos 100 R6
# Analyzer Lens:     LargeArea:1.5kV
# Analyzer Slit:     5:7x20\B:open
# Scan Mode:         FixedAnalyzerTransmission
# Curves/Scan:       1
# Values/Curve:      171
# Dwell Time:        0.8
# Excitation Energy: 1486.61
# Binding Energy:    542
# Pass Energy:       30
# Bias Voltage:      90
# Detector Voltage:  2600
# Eff. Workfunction: 4.309
# Source:            X-Ray Dummy
# Comment:           
#
# Cycle: 0
# Number of Scans: 50
#
# Cycle: 0, Curve: 0
# Acquisition Date: 08/30/22 00:44:00 UTC
#
# ColumnLabels: energy counts/s
#
542  1288.75
541.9  1275.15
541.8  1271.3
541.7  1282.75
541.6  1275.05
541.5  1269.075
541.4  1270.7
541.3  1265.15
541.2  1262.175
541.1  1257.75
541  1249.775
540.9  1238.775
540.8  1252.35
540.7  1251.375
540.6  1241.175
540.5  1241.75
540.4  1221.15
540.3  1229.25
540.2  1225.575
540.1  1216.1
540  1225.525
539.9  1226.55
539.8  1209.45
539.7  1206.6
539.6  1202.7
539.5  1199.575
539.4  1201.325
539.3  1192.225
539.2  1183.775
539.1  1187.575
539  1175.425
538.9  1177.275
538.8  1174.175
538.7  1172.925
538.6  1158.825
538.5  1164.45
538.4  1150.3
538.3  1160.725
538.2  1160.65
538.1  1141.6
538  1145.975
537.9  1136.75
537.8  1133
537.7  1126.9
537.6  1130.175
537.5  1127.725
537.4  1124.475
537.3  1118.525
537.2  1116.225
537.1  1112.325
537  1108.9
536.9  1108.35
536.8  1104.65
536.7  1111.9
536.6  1109.75
536.5  1104.1
536.4  1088.9
536.3  1091.95
536.2  1095.95
536.1  1085.675
536  1084.325
535.9  1093.125
535.8  1092.025
535.7  1089.825
535.6  1079.85
535.5  1078.825
535.4  1084.35
535.3  1074.5
535.2  1075.425
535.1  1054.175
535  1066.85
534.9  1073.45
534.8  1076.5
534.7  1065.625
534.6  1064.175
534.5  1067.025
534.4  1065.225
534.3  1072.175
534.2  1063.425
534.1  1065.3
534  1061.025
533.9  1059
533.8  1066.575
533.7  1060.375
533.6  1052.6
533.5  1066.45
533.4  1059.775
533.3  1047.175
533.2  1050.975
533.1  1069.25
533  1060.925
532.9  1051.85
532.8  1058.25
532.7  1057.875
532.6  1058.3
532.5  1051.85
532.4  1064.65
532.3  1047.325
532.2  1051.925
532.1  1051.625
532  1061
531.9  1056.7
531.8  1053.525
531.7  1053.85
531.6  1058.3
531.5  1045.9
531.4  1055.475
531.3  1046.725
531.2  1047.55
531.1  1049.3
531  1042
530.9  1051.9
530.8  1049.45
530.7  1040.8
530.6  1045.75
530.5  1053.625
530.4  1048.05
530.3  1048.475
530.2  1049.2
530.1  1056.025
530  1045.325
529.9  1046.525
529.8  1037.575
529.7  1044.75
529.6  1036.65
529.5  1032.65
529.4  1037.625
529.3  1040.225
529.2  1029.275
529.1  1040.225
529  1035.2
528.9  1030.925
528.8  1038.975
528.7  1034.125
528.6  1031.425
528.5  1036.05
528.4  1034.175
528.3  1022.2
528.2  1028.975
528.1  1034.85
528  1024.95
527.9  1027.6
527.8  1031.325
527.7  1028.1
527.6  1036.9
527.5  1021.95
527.4  1035.075
527.3  1028.1
527.2  1026.375
527.1  1042.3
527  1030.625
526.9  1030.85
526.8  1034.125
526.7  1028.05
526.6  1027.775
526.5  1030.4
526.4  1021.875
526.3  1018.4
526.2  1028.75
526.1  1027.225
526  1029.15
525.9  1023.275
525.8  1038.625
525.7  1023.35
525.6  1026.6
525.5  1030.225
525.4  1027.075
525.3  1021.55
525.2  1029.575
525.1  1028.75
525  1020.15

# Region:            N 1s
# Acquisition Date:  08/30/22 01:53:30 UTC
# Analysis Method:   XPS
# Analyzer:          Phoibos 100 R6
# Analyzer Lens:     LargeArea:1.5kV
# Analyzer Slit:     5:7x20\B:open
# Scan Mode:         FixedAnalyzerTransmission
# Curves/Scan:       1
# Values/Curve:      101
# Dwell Time:        0.8
# Excitation Energy: 1486.61
# Binding Energy:    405
# Pass Energy:       30
# Bias Voltage:      90
# Detector Voltage:  2600
# Eff. Workfunction: 4.309
# Source:            X-Ray Dummy
# Comment:           
#
# Cycle: 0
# Number of Scans: 100
#
# Cycle: 0, Curve: 0
# Acquisition Date: 08/30/22 01:53:30 UTC
#
# ColumnLabels: energy counts/s
#
405  965.0125
404.9  963.625
404.8  966.1375
404.7  969.825
404.6  961.225
404.5  960.425
404.4  964.35
404.3  962.4875
404.2  960.2125
404.1  968.4625
404  965.375
403.9  962.7875
403.8  962.3125
403.7  963.3875
403.6  965.1125
403.5  961.225
403.4  963.55
403.3  960.425
403.2  958.65
403.1  961.25
403  961.925
402.9  955.6125
402.8  959.725
402.7  956.4
402.6  954.8
402.5  959.1375
402.4  957.7125
402.3  954.525
402.2  948.3
402.1  949.4875
402  949.9625
401.9  954.275
401.8  952.4125
401.7  949.3875
401.6  947.3125
401.5  950.9
401.4  949.3875
401.3  944.975
401.2  948.025
401.1  946.6125
401  942.8125
400.9  945.85
400.8  946.4375
400.7  941.1875
400.6  938.1125
400.5  945.2375
400.4  944.125
400.3  942.525
400.2  940.65
400.1  939.65
400  938.675
399.9  934.925
399.8  938.725
399.7  939.1
399.6  938.7
399.5  937.975
399.4  937.0625
399.3  935.5625
399.2  940.4625
399.1  938.6
399  939.0875
398.9  937.35
398.8  936.1875
398.7  935.3875
398.6  936.3125
398.5  933.6375
398.4  935.15
398.3  940.5125
398.2  928.3875
398.1  933.0625
398  936.275
397.9  925.5375
397.8  935.3625
397.7  931.65
397.6  930.2625
397.5  925.2875
397.4  922.7375
397.3  931.8125
397.2  929.7125
397.1  932.3
397  930.0625
396.9  920.9
396.8  922.1875
396.7  923.125
396.6  923.8875
396.5  924.7625
396.4  925.075
396.3  915.1
396.2  918.5
396.1  922.975
396  928.85
395.9  921.375
395.8  924.75
395.7  921.9125
395.6  923.1625
395.5  923.15
395.4  926.1
395.3  923.35
395.2  917.775
395.1  921.4
395  922.5125

# Region:            Cu 2p
# Acquisition Date:  08/29/22 17:55:24 UTC
# Analysis Method:   XPS
# Analyzer:          Phoibos 100 R6
# Analyzer Lens:     LargeArea:1.5kV
# Analyzer Slit:     5:7x20\B:open
# Scan Mode:         FixedAnalyzerTransmission
# Curves/Scan:       1
# Values/Curve:      341
# Dwell Time:        0.8
# Excitation Energy: 1486.61
# Binding Energy:    960
# Pass Energy:       30
# Bias Voltage:      90
# Detector Voltage:  2600
# Eff. Workfunction: 4.309
# Source:            X-Ray Dummy
# Comment:           
#
# Cycle: 0
# Number of Scans: 2
#
# Cycle: 0, Curve: 0
# Acquisition Date: 08/29/22 17:55:24 UTC
#
# ColumnLabels: energy counts/s
#
960  15418.75
959.9  15407.5
959.8  15486.875
959.7  15342.5
959.6  15289.375
959.5  15388.125
959.4  15303.75
959.3  15315.625
959.2  15138.75
959.1  15385.625
959  15397.5
958.9  15513.125
958.8  15271.875
958.7  15413.75
958.6  15240.625
958.5  15309.375
958.4  15301.875
958.3  15382.5
958.2  15553.75
958.1  15615.625
958  15561.25
957.9  15430.625
957.8  15535
957.7  15475
957.6  15595.625
957.5  15671.875
957.4  15707.5
957.3  15766.25
957.2  15694.375
957.1  15860
957  15776.875
956.9  15908.75
956.8  16035
956.7  15950
956.6  16148.75
956.5  15851.25
956.4  16173.125
956.3  16265
956.2  16257.5
956.1  16415.625
956  16370
955.9  16719.375
955.8  16738.75
955.7  16779.375
955.6  16710
955.5  17081.25
955.4  17230.625
955.3  17238.125
955.2  17506.25
955.1  17745.625
955  17907.5
954.9  18438.75
954.8  18325.625
954.7  18855.625
954.6  19166.875
954.5  19382.5
954.4  20211.875
954.3  20785.625
954.2  21186.875
954.1  21903.125
954  22431.25
953.9  23244.375
953.8  23800
953.7  24550
953.6  25405
953.5  26302.5
953.4  27087.5
953.3  27971.25
953.2  28690.625
953.1  29105
953  29918.125
952.9  30020.625
952.8  30275.625
952.7  30342.5
952.6  30252.5
952.5  30068.75
952.4  29646.25
952.3  29213.75
952.2  28376.875
952.1  27610.625
952  26801.25
951.9  25621.25
951.8  24903.75
951.7  23865
951.6  22999.375
951.5  21850
951.4  21381.25
951.3  20746.25
951.2  19853.125
951.1  19240.625
951  18582.5
950.9  18296.25
950.8  17708.75
950.7  17318.125
950.6  17126.875
950.5  16696.25
950.4  16648.75
950.3  16386.25
950.2  16123.125
950.1  15827.5
950  15733.125
949.9  15525.625
949.8  15568.125
949.7  15353.75
949.6  15401.25
949.5  15140
949.4  14962.5
949.3  14979.375
949.2  14738.125
949.1  14818.75
949  14690
948.9  14657.5
948.8  14573.75
948.7  14643.75
948.6  14663.125
948.5  14534.375
948.4  14306.25
948.3  14476.25
948.2  14482.5
948.1  14317.5
948  14286.875
947.9  14376.25
947.8  14416.875
947.7  14433.125
947.6  14263.75
947.5  14353.125
947.4  14370.625
947.3  14363.75
947.2  14452.5
947.1  14268.75
947  14147.5
946.9  14419.375
946.8  14253.75
946.7  14337.5
946.6  14202.5
946.5  14188.75
946.4  14188.75
946.3  14323.125
946.2  14186.25
946.1  14115.625
946  14099.375
945.9  14206.25
945.8  14176.25
945.7  14061.25
945.6  14073.125
945.5  14210.625
945.4  14046.875
945.3  14159.375
945.2  13950.625
945.1  14123.75
945  14049.375
944.9  14112.5
944.8  14032.5
944.7  13942.5
944.6  14110.625
944.5  13913.75
944.4  13810
944.3  14170
944.2  13844.375
944.1  14197.5
944  14378.125
943.9  14228.75
943.8  14298.75
943.7  14353.75
943.6  14261.875
943.5  14397.5
943.4  14543.75
943.3  14377.5
943.2  14529.375
943.1  14430
943  14416.25
942.9  14398.75
942.8  14579.375
942.7  14393.125
942.6  14261.875
942.5  14043.75
942.4  14201.25
942.3  14290.625
942.2  14136.25
942.1  13885
942  13841.25
941.9  13703.125
941.8  13688.75
941.7  13578.75
941.6  13551.875
941.5  13552.5
941.4  13478.125
941.3  13426.875
941.2  13353.125
941.1  13362.5
941  13436.875
940.9  13306.875
940.8  13231.875
940.7  13152.5
940.6  13270.625
940.5  13133.125
940.4  13173.75
940.3  13178.125
940.2  12899.375
940.1  12915.625
940  12930.625
939.9  12948.125
939.8  12809.375
939.7  12814.375
939.6  12785.625
939.5  12693.75
939.4  12758.75
939.3  12550
939.2  12615
939.1  12658.75
939  12646.25
938.9  12619.375
938.8  12477.5
938.7  12499.375
938.6  12644.375
938.5  12380
938.4  12556.875
938.3  12635
938.2  12612.5
938.1  12713.125
938  12468.75
937.9  12653.125
937.8  12711.875
937.7  12679.375
937.6  12878.125
937.5  12888.75
937.4  12890
937.3  12893.125
937.2  12941.875
937.1  13120.625
937  13031.875
936.9  13078.75
936.8  13261.25
936.7  13127.5
936.6  13375.625
936.5  13305.625
936.4  13406.25
936.3  13310.625
936.2  13633.125
936.1  13631.875
936  13641.875
935.9  13848.125
935.8  13989.375
935.7  13864.375
935.6  14208.75
935.5  14221.25
935.4  14531.25
935.3  14759.375
935.2  14900.625
935.1  15416.875
935  15919.375
934.9  16365
934.8  17061.875
934.7  17811.875
934.6  18602.5
934.5  19485.625
934.4  20787.5
934.3  22278.125
934.2  23715.625
934.1  25491.25
934  27640
933.9  29591.875
933.8  31891.25
933.7  34575
933.6  37272.5
933.5  39778.125
933.4  42721.25
933.3  45340.625
933.2  47336.25
933.1  49050
933  50451.25
932.9  51013.75
932.8  50950.625
932.7  50380.625
932.6  49093.75
932.5  47142.5
932.4  44823.125
932.3  41695.625
932.2  38984.375
932.1  35686.25
932  32810
931.9  29708.125
931.8  27015
931.7  24501.25
931.6  22238.75
931.5  20322.5
931.4  18647.5
931.3  17126.25
931.2  15933.125
931.1  15106.25
931  14110
930.9  13558.75
930.8  12916.875
930.7  12482.5
930.6  11983.75
930.5  11725.625
930.4  11398.125
930.3  11221.25
930.2  11020
930.1  10693.125
930  10575
929.9  10469.375
929.8  10210.625
929.7  10014.375
929.6  10056.25
929.5  9968.75
929.4  9845
929.3  9672.5
929.2  9625.625
929.1  9437.5
929  9314.375
928.9  9354.375
928.8  9340.625
928.7  9328.125
928.6  9220
928.5  9198.75
928.4  9071.875
928.3  9210.625
928.2  9138.75
928.1  9051.25
928  8990.625
927.9  8926.25
927.8  9009.375
927.7  9067.5
927.6  9062.5
927.5  9132.5
927.4  9009.375
927.3  8836.25
927.2  8936.875
927.1  9035.625
927  8908.75
926.9  8678.125
926.8  8736.25
926.7  8836.25
926.6  8746.25
926.5  8530.625
926.4  8749.375
926.3  8583.75
926.2  8686.875
926.1  8881.875
926  8573.75

# Region:            Ba 3d
# Acquisition Date:  08/29/22 21:56:45 UTC
# Analysis Method:   XPS
# Analyzer:          Phoibos 100 R6
# Analyzer Lens:     LargeArea:1.5kV
# Analyzer Slit:     5:7x20\B:open
# Scan Mode:         FixedAnalyzerTransmission
# Curves/Scan:       1
# Values/Curve:      281
# Dwell Time:        0.8
# Excitation Energy: 1486.61
# Binding Energy:    801
# Pass Energy:       30
# Bias Voltage:      90
# Detector Voltage:  2600
# Eff. Workfunction: 4.309
# Source:            X-Ray Dummy
# Comment:           
#
# Cycle: 0
# Number of Scans: 20
#
# Cycle: 0, Curve: 0
# Acquisition Date: 08/29/22 21:56:45 UTC
#
# ColumnLabels: energy counts/s
#
801  7482.125
800.9  7488
800.8  7467.5
800.7  7492
800.6  7481.5625
800.5  7479.5
800.4  7465.8125
800.3  7444.5
800.2  7479.75
800.1  7487.8125
800  7458.5
799.9  7485.4375
799.8  7512
799.7  7490.6875
799.6  7502.3125
799.5  7500
799.4  7461.6875
799.3  7465.25
799.2  7453.5
799.1  7457
799  7460.875
798.9  7503.75
798.8  7490.5
798.7  7476.3125
798.6  7504.75
798.5  7480.375
798.4  7449.5
798.3  7516.0625
798.2  7509.125
798.1  7460.3125
798  7476.875
797.9  7476.5
797.8  7491.25
797.7  7445.8125
797.6  7460.875
797.5  7475.75
797.4  7518.75
797.3  7487.875
797.2  7486.9375
797.1  7501.625
797  7522.625
796.9  7510.3125
796.8  7465.4375
796.7  7499.5625
796.6  7503.25
796.5  7483.6875
796.4  7493.9375
796.3  7534.125
796.2  7482.8125
796.1  7462.75
796  7463.3125
795.9  7514.625
795.8  7515.0625
795.7  7483.5
795.6  7504.875
795.5  7454.25
795.4  7504.625
795.3  7519.1875
795.2  7510.25
795.1  7484.375
795  7493.5
794.9  7513.25
794.8  7557.5
794.7  7466.875
794.6  7509.0625
794.5  7489.0625
794.4  7517.3125
794.3  7500.5
794.2  7513.9375
794.1  7485.75
794  7493.375
793.9  7523.5
793.8  7498
793.7  7500.625
793.6  7517.5625
793.5  7493.125
793.4  7487.0625
793.3  7492.6875
793.2  7479.375
793.1  7503.875
793  7482.6875
792.9  7504.3125
792.8  7532.25
792.7  7504.375
792.6  7514.375
792.5  7542.4375
792.4  7506.6875
792.3  7506.1875
792.2  7500.5625
792.1  7558.9375
792  7504.125
791.9  7526
791.8  7493.8125
791.7  7531.875
791.6  7499.9375
791.5  7547.5625
791.4  7557.1875
791.3  7524.6875
791.2  7546.0625
791.1  7511.8125
791  7522.4375
790.9  7485.75
790.8  7567.625
790.7  7517.375
790.6  7519.0625
790.5  7557.8125
790.4  7581.5625
790.3  7574.3125
790.2  7569.5
790.1  7505.5
790  7559.4375
789.9  7537.8125
789.8  7516.3125
789.7  7549.5625
789.6  7572.3125
789.5  7561.5625
789.4  7585.4375
789.3  7550.375
789.2  7558.6875
789.1  7556.5625
789  7574
788.9  7623.875
788.8  7557.8125
788.7  7572.875
788.6  7581.25
788.5  7585.1875
788.4  7562.5
788.3  7564.75
788.2  7539.75
788.1  7588.25
788  7573.5625
787.9  7556.9375
787.8  7565.3125
787.7  7583
787.6  7570.1875
787.5  7563.9375
787.4  7579.9375
787.3  7565.5
787.2  7571.1875
787.1  7594.5
787  7570.5625
786.9  7580.75
786.8  7636.375
786.7  7600.3125
786.6  7526.75
786.5  7570.25
786.4  7612.0625
786.3  7585.375
786.2  7628.375
786.1  7581.3125
786  7618.625
785.9  7582
785.8  7563.4375
785.7  7621.125
785.6  7573.3125
785.5  7584.375
785.4  7609.75
785.3  7623.375
785.2  7592.375
785.1  7618.5625
785  7605.875
784.9  7637.25
784.8  7619.4375
784.7  7604.25
784.6  7610.5625
784.5  7582.3125
784.4  7618.5
784.3  7601
784.2  7642.0625
784.1  7604.0625
784  7651.8125
783.9  7632.625
783.8  7625.5
783.7  7637.0625
783.6  7637.3125
783.5  7635.5625
783.4  7670.1875
783.3  7637.125
783.2  7635.625
783.1  7683.1875
783  7605.6875
782.9  7641.375
782.8  7615.6875
782.7  7643.75
782.6  7680.6875
782.5  7652.6875
782.4  7650.0625
782.3  7684.1875
782.2  7628.625
782.1  7664.6875
782  7699.625
781.9  7644.3125
781.8  7649.9375
781.7  7677
781.6  7698.1875
781.5  7692.6875
781.4  7676.875
781.3  7693.625
781.2  7640.9375
781.1  7713.25
781  7693.875
780.9  7702.9375
780.8  7702.6875
780.7  7697.75
780.6  7673.75
780.5  7716.5625
780.4  7737.875
780.3  7748.75
780.2  7722.875
780.1  7724.75
780  7733.5
779.9  7698.75
779.8  7692.6875
779.7  7700.875
779.6  7729.25
779.5  7738.75
779.4  7720.875
779.3  7783.8125
779.2  7764.125
779.1  7735.375
779  7756.8125
778.9  7771.875
778.8  7788.0625
778.7  7785.875
778.6  7798.4375
778.5  7775.1875
778.4  7763
778.3  7789.375
778.2  7804.3125
778.1  7822.1875
778  7837.3125
777.9  7845.8125
777.8  7803.3125
777.7  7772.6875
777.6  7806.125
777.5  7837
777.4  7850.1875
777.3  7829.25
777.2  7816.375
777.1  7822.4375
777  7811
776.9  7838.875
776.8  7836.875
776.7  7877.625
776.6  7852.9375
776.5  7858.125
776.4  7898.5
776.3  7825.6875
776.2  7870.875
776.1  7847
776  7854.875
775.9  7884.625
775.8  7855.625
775.7  7908.4375
775.6  7857.625
775.5  7866
775.4  7880.5
775.3  7912
775.2  7899
775.1  7900.3125
775  7855.3125
774.9  7853.4375
774.8  7901.875
774.7  7893
774.6  7885.8125
774.5  7900.25
774.4  7911.4375
774.3  7876.3125
774.2  7846
774.1  7902.3125
774  7868.4375
773.9  7916.4375
773.8  7891.3125
773.7  7887.4375
773.6  7892.25
773.5  7874.8125
773.4  7914.1875
773.3  7909.6875
773.2  7928.8125
773.1  7919.4375
773  7911.6875

# Region:            Cl 2p
# Acquisition Date:  08/29/22 21:58:15 UTC
# Analysis Method:   XPS
# Analyzer:          Phoibos 100 R6
# Analyzer Lens:     LargeArea:1.5kV
