# Created by:        SpecsLab Prodigy, Version 4.60.2-r85849 
#
# XY-Serializer Export Settings:
#   Comment Prefix:           #
#   Output meta data:         yes
#   Energy Axis:              Binding Energy
#   Count Rate:               Counts per Second
#   Separate Scan Data:       no
#   Separate Channel Data:    no
#   External Channel Data:    yes
#   Transmission Function:    no
#   ErrorBar:                 no
#   Operation Results:        yes
#   Time Zone Format:         UTC
#
# Group:             xps
#
# Region:            C 1s
# Acquisition Date:  08/31/22 10:31:58 UTC
# Analysis Method:   XPS
# Analyzer:          Phoibos 100 R6
# Analyzer Lens:     LargeArea:1.5kV
# Analyzer Slit:     5:7x20\B:open
# Scan Mode:         FixedAnalyzerTransmission
# Curves/Scan:       1
# Values/Curve:      151
# Dwell Time:        0.8
# Excitation Energy: 1486.61
# Binding Energy:    295
# Pass Energy:       30
# Bias Voltage:      90
# Detector Voltage:  2600
# Eff. Workfunction: 4.309
# Source:            X-Ray Dummy
# Comment:           
#
# Cycle: 0
# Number of Scans: 10
#
# Cycle: 0, Curve: 0
# Acquisition Date: 08/31/22 10:31:58 UTC
#
# ColumnLabels: energy counts/s
#
295  909.375
294.9  890.375
294.8  901.75
294.7  898.875
294.6  897.875
294.5  900.75
294.4  907
294.3  892.875
294.2  916
294.1  882.25
294  892.75
293.9  900.25
293.8  898
293.7  900
293.6  909.5
293.5  892.375
293.4  890.5
293.3  880
293.2  896.25
293.1  901.875
293  917.875
292.9  895.875
292.8  901.25
292.7  874.75
292.6  920.625
292.5  916.375
292.4  899.375
292.3  896.625
292.2  914.875
292.1  905
292  906.5
291.9  905
291.8  917.625
291.7  897.125
291.6  912
291.5  904.5
291.4  909.375
291.3  905.125
291.2  912.25
291.1  921.875
291  911.625
290.9  918.875
290.8  904.125
290.7  882.5
290.6  886.75
290.5  919.625
290.4  920.25
290.3  898.625
290.2  916.125
290.1  919
290  931.75
289.9  916.625
289.8  921.75
289.7  931.5
289.6  923.875
289.5  897.75
289.4  935.75
289.3  943
289.2  926.625
289.1  937.875
289  950.25
288.9  934.875
288.8  937.5
288.7  966.5
288.6  955.375
288.5  947.5
288.4  961.25
288.3  959.25
288.2  964.875
288.1  962.25
288  972.5
287.9  966.75
287.8  990.875
287.7  997.75
287.6  996.625
287.5  989.25
287.4  1023.875
287.3  1022
287.2  999.375
287.1  1014.25
287  1045.875
286.9  1044.75
286.8  1067.375
286.7  1063.625
286.6  1067.875
286.5  1091.625
286.4  1131.625
286.3  1123.5
286.2  1113.5
286.1  1135.5
286  1177.625
285.9  1187.875
285.8  1212
285.7  1185.625
285.6  1215.75
285.5  1232.375
285.4  1229.875
285.3  1253.875
285.2  1247.375
285.1  1233.125
285  1251.875
284.9  1247.25
284.8  1240.25
284.7  1224.375
284.6  1230.625
284.5  1194.25
284.4  1180.625
284.3  1136
284.2  1118.375
284.1  1087
284  1083.25
283.9  1048.25
283.8  1030.625
283.7  1029.125
283.6  976.75
283.5  970.125
283.4  960.625
283.3  945.75
283.2  925.625
283.1  923.875
283  896.75
282.9  901.75
282.8  925
282.7  889.625
282.6  897.5
282.5  887.25
282.4  910.625
282.3  884.25
282.2  865
282.1  877.625
282  881.375
281.9  894.375
281.8  883.125
281.7  881.875
281.6  878.125
281.5  873.625
281.4  876.25
281.3  882
281.2  863.125
281.1  867.625
281  888.875
280.9  869.5
280.8  884.75
280.7  861.125
280.6  865.125
280.5  897.625
280.4  893.375
280.3  888.625
280.2  863.375
280.1  868
280  875

# Region:            Ba 3d (2)
# Acquisition Date:  08/31/22 08:53:38 UTC
# Analysis Method:   XPS
# Analyzer:          Phoibos 100 R6
# Analyzer Lens:     LargeArea:1.5kV
# Analyzer Slit:     5:7x20\B:open
# Scan Mode:         FixedAnalyzerTransmission
# Curves/Scan:       1
# Values/Curve:      281
# Dwell Time:        0.8
# Excitation Energy: 1486.61
# Binding Energy:    801
# Pass Energy:       30
# Bias Voltage:      90
# Detector Voltage:  2600
# Eff. Workfunction: 4.309
# Source:            X-Ray Dummy
# Comment:           
#
# Cycle: 0
# Number of Scans: 1
#
# Cycle: 0, Curve: 0
# Acquisition Date: 08/31/22 08:53:38 UTC
#
# ColumnLabels: energy counts/s
#
801  7521.25
800.9  7351.25
800.8  7513.75
800.7  7387.5
800.6  7292.5
800.5  7357.5
800.4  7477.5
800.3  7493.75
800.2  7442.5
800.1  7401.25
800  7423.75
799.9  7202.5
799.8  7457.5
799.7  7465
799.6  7288.75
799.5  7461.25
799.4  7518.75
799.3  7335
799.2  7512.5
799.1  7410
799  7302.5
798.9  7655
798.8  7497.5
798.7  7585
798.6  7378.75
798.5  7751.25
798.4  7622.5
798.3  7542.5
798.2  7783.75
798.1  7617.5
798  7685
797.9  7795
797.8  7762.5
797.7  8013.75
797.6  8080
797.5  7931.25
797.4  8223.75
797.3  8275
797.2  8147.5
797.1  8268.75
797  8752.5
796.9  8783.75
796.8  8636.25
796.7  8975
796.6  8855
796.5  8850
796.4  9042.5
796.3  9112.5
796.2  9037.5
796.1  9033.75
796  8810
795.9  8712.5
795.8  8747.5
795.7  8675
795.6  8523.75
795.5  8388.75
795.4  8401.25
795.3  8012.5
795.2  7845
795.1  7970
795  8050
794.9  7803.75
794.8  7776.25
794.7  7595
794.6  7641.25
794.5  7577.5
794.4  7411.25
794.3  7470
794.2  7647.5
794.1  7492.5
794  7393.75
793.9  7580
793.8  7233.75
793.7  7445
793.6  7466.25
793.5  7218.75
793.4  7353.75
793.3  7217.5
793.2  7330
793.1  7292.5
793  7412.5
792.9  7326.25
792.8  7330
792.7  7308.75
792.6  7557.5
792.5  7337.5
792.4  7270
792.3  7442.5
792.2  7355
792.1  7473.75
792  7268.75
791.9  7142.5
791.8  7276.25
791.7  7112.5
791.6  7433.75
791.5  7276.25
791.4  7295
791.3  7416.25
791.2  7388.75
791.1  7317.5
791  7225
790.9  7231.25
790.8  7395
790.7  7335
790.6  7181.25
790.5  7152.5
790.4  7273.75
790.3  7360
790.2  7196.25
790.1  7475
790  7400
789.9  7281.25
789.8  7325
789.7  7305
789.6  7308.75
789.5  7170
789.4  7321.25
789.3  7443.75
789.2  7330
789.1  7193.75
789  7307.5
788.9  7102.5
788.8  7165
788.7  7361.25
788.6  7495
788.5  7276.25
788.4  7310
788.3  7460
788.2  7285
788.1  7253.75
788  7518.75
787.9  7098.75
787.8  7336.25
787.7  7462.5
787.6  7308.75
787.5  7405
787.4  7332.5
787.3  7326.25
787.2  7290
787.1  7206.25
787  7511.25
786.9  7311.25
786.8  7510
786.7  7445
786.6  7457.5
786.5  7413.75
786.4  7503.75
786.3  7571.25
786.2  7362.5
786.1  7278.75
786  7422.5
785.9  7343.75
785.8  7341.25
785.7  7310
785.6  7421.25
785.5  7305
785.4  7425
785.3  7436.25
785.2  7498.75
785.1  7450
785  7457.5
784.9  7346.25
784.8  7576.25
784.7  7510
784.6  7518.75
784.5  7628.75
784.4  7545
784.3  7480
784.2  7486.25
784.1  7452.5
784  7458.75
783.9  7520
783.8  7573.75
783.7  7577.5
783.6  7545
783.5  7681.25
783.4  7770
783.3  7663.75
783.2  7540
783.1  7802.5
783  7815
782.9  7721.25
782.8  7751.25
782.7  7963.75
782.6  7812.5
782.5  8022.5
782.4  8187.5
782.3  8350
782.2  8573.75
782.1  8395
782  8491.25
781.9  8812.5
781.8  9066.25
781.7  8938.75
781.6  9232.5
781.5  9341.25
781.4  9353.75
781.3  9532.5
781.2  9698.75
781.1  9845
781  9565
780.9  9453.75
780.8  9496.25
780.7  9471.25
780.6  9516.25
780.5  9482.5
780.4  9057.5
780.3  8988.75
780.2  8793.75
780.1  8925
780  8497.5
779.9  8508.75
779.8  8235
779.7  8062.5
779.6  8060
779.5  7830
779.4  7797.5
779.3  7752.5
779.2  7832.5
779.1  7575
779  7695
778.9  7601.25
778.8  7515
778.7  7545
778.6  7343.75
778.5  7481.25
778.4  7366.25
778.3  7310
778.2  7361.25
778.1  7407.5
778  7518.75
777.9  7417.5
777.8  7282.5
777.7  7323.75
777.6  7238.75
777.5  7385
777.4  7408.75
777.3  7377.5
777.2  7122.5
777.1  7448.75
777  7255
776.9  7403.75
776.8  7251.25
776.7  7273.75
776.6  7302.5
776.5  7248.75
776.4  7436.25
776.3  7412.5
776.2  7242.5
776.1  7170
776  7301.25
775.9  7141.25
775.8  7403.75
775.7  7317.5
775.6  7471.25
775.5  7296.25
775.4  7322.5
775.3  7278.75
775.2  7341.25
775.1  7376.25
775  7282.5
774.9  7328.75
774.8  7147.5
774.7  7491.25
774.6  7235
774.5  7263.75
774.4  7170
774.3  7386.25
774.2  7232.5
774.1  7421.25
774  7235
773.9  7147.5
773.8  7200
773.7  7366.25
773.6  7450
773.5  7293.75
773.4  7146.25
773.3  7263.75
773.2  7283.75
773.1  7307.5
773  7263.75

# Region:            O 1s
# Acquisition Date:  08/31/22 12:42:30 UTC
# Analysis Method:   XPS
# Analyzer:          Phoibos 100 R6
# Analyzer Lens:     LargeArea:1.5kV
# Analyzer Slit:     5:7x20\B:open
# Scan Mode:         FixedAnalyzerTransmission
# Curves/Scan:       1
# Values/Curve:      171
# Dwell Time:        0.8
# Excitation Energy: 1486.61
# Binding Energy:    542
# Pass Energy:       30
# Bias Voltage:      90
# Detector Voltage:  2600
# Eff. Workfunction: 4.309
# Source:            X-Ray Dummy
# Comment:           
#
# Cycle: 0
# Number of Scans: 40
#
# Cycle: 0, Curve: 0
# Acquisition Date: 08/31/22 12:42:30 UTC
#
# ColumnLabels: energy counts/s
#
542  1152.75
541.9  1162.5938
541.8  1158.8125
541.7  1157.2188
541.6  1145.2813
541.5  1149.6875
541.4  1162.1875
541.3  1151.9375
541.2  1137.25
541.1  1145.875
541  1138.7813
540.9  1137.9063
540.8  1138.6563
540.7  1133.2188
540.6  1122.375
540.5  1121.4688
540.4  1114.5
540.3  1120.0938
540.2  1123.125
540.1  1122.3438
540  1120.0938
539.9  1103.4375
539.8  1115.9375
539.7  1099.0313
539.6  1093.875
539.5  1113.2813
539.4  1100.9063
539.3  1094.5625
539.2  1078.375
539.1  1087.25
539  1090.75
538.9  1085.8125
538.8  1086.4688
538.7  1079.9375
538.6  1088.25
538.5  1070.875
538.4  1075.3438
538.3  1067.0313
538.2  1068.375
538.1  1075.4688
538  1067.375
537.9  1061.0938
537.8  1063.5
537.7  1060.0625
537.6  1059.7188
537.5  1051.0625
537.4  1057.25
537.3  1053.5313
537.2  1053.75
537.1  1050.4375
537  1039.1875
536.9  1045.6875
536.8  1045.8125
536.7  1041.375
536.6  1041.1875
536.5  1040.4063
536.4  1022.0313
536.3  1034.3438
536.2  1044.0313
536.1  1030.0625
536  1041.4063
535.9  1037.75
535.8  1029.7813
535.7  1029.9063
535.6  1038.4688
535.5  1043.2188
535.4  1032.4688
535.3  1043.5625
535.2  1038.0938
535.1  1040.3438
535  1046.8125
534.9  1046.8125
534.8  1050.9375
534.7  1052.6563
534.6  1061.3438
534.5  1063.4063
534.4  1066.0625
534.3  1074.1875
534.2  1065.875
534.1  1086.5625
534  1076.4063
533.9  1089.5938
533.8  1089.4375
533.7  1084.5625
533.6  1091.125
533.5  1094.25
533.4  1089.0313
533.3  1095.1875
533.2  1099.3125
533.1  1105.1563
533  1103.4688
532.9  1098.5313
532.8  1108.375
532.7  1097.5938
532.6  1094.0625
532.5  1098.6875
532.4  1087.9375
532.3  1093.7188
532.2  1086
532.1  1083.125
532  1093.2188
531.9  1086.9063
531.8  1076
531.7  1075.0938
531.6  1076.3125
531.5  1067.6563
531.4  1065.0625
531.3  1063.5313
531.2  1051.0938
531.1  1046.0938
531  1067.4688
530.9  1032.5625
530.8  1029.7188
530.7  1019.125
530.6  1020.125
530.5  1021.2813
530.4  1016.5
530.3  1011.25
530.2  1003.2813
530.1  1006.5625
530  1002.3438
529.9  1001.9063
529.8  994.15625
529.7  986.4375
529.6  1006.75
529.5  993.03125
529.4  985.3125
529.3  993.375
529.2  979.09375
529.1  982.65625
529  985.625
528.9  984.5625
528.8  989
528.7  982.34375
528.6  980.09375
528.5  980.84375
528.4  982.8125
528.3  973.5625
528.2  978.3125
528.1  984.40625
528  984.75
527.9  990.25
527.8  975.3125
527.7  971.65625
527.6  977.09375
527.5  976.78125
527.4  983.78125
527.3  978.625
527.2  973.8125
527.1  974.0625
527  974
526.9  976.1875
526.8  975.53125
526.7  972.46875
526.6  977.1875
526.5  970.5
526.4  974.34375
526.3  987.9375
526.2  980.125
526.1  982.96875
526  977.84375
525.9  980.25
525.8  973.34375
525.7  979.21875
525.6  968.84375
525.5  976.09375
525.4  975.625
525.3  975.3125
525.2  979.84375
525.1  978.53125
525  977.78125

# Operation:         Peak Fit
# Range Start:       542
# Range End:         526.479
# Parameter: "Transition" = 
# Parameter: "Label" = 
# Parameter: "Background Method" = Tougaard
# Parameter: "Peak Shape" = Voigt
# Parameter: "Asymmetric Peak" = false
# Parameter: "FWHM-Annotation" = S-B = <Signal-BG:@>\nFWHM = <FWHM:@>\nArea = <Area:@>
# Parameter: "Peak-Annotation" = <Label>\n<Transition>\nE = <Center:@>
#
# Result:
# Number of Results: 2
# Parameter: "Transition" = 
# Parameter: "Label" = 
# Parameter: "Center" = 532.65192575010633 eV +- 0.023131771552812097
# Parameter: "Area" = 438.88517265241319 cps eV +- 8.5888196966915871
# Parameter: "FWHM Lorentzian" = 0 eV +- 0
# Parameter: "FWHM Gaussian" = 3.5606328682677346 eV +- 0.06030052237722857
# Parameter: "Asymmetry" = 0 +- 0
# Parameter: "Tougaard B" = 87129.530616210075 eV^2 +- 1094.3876926845546
# Parameter: "Tougaard C" = 1643 eV^2 +- 0
# Parameter: "FWHM" = 3.5606328682677346 eV
# Parameter: "Offset (0th order)" = 977.12929735420312 cps +- 1.1084491712979343
# Parameter: "Abbe factor" = 0.92159117238240051
# Parameter: "Reduced Chi Square" = 1.1211483055431712
# Parameter: "Q Probability" = 0.1481375232658555
# Parameter: "Number of performed iterations" = 13
# Parameter: "Fit termination reason" = ConvergedInParameter
# Parameter: "Signal" = 1101.6215019074696 cps
# Parameter: "Signal-BG" = 115.79545196379601 cps
#
# Result Name:       Background
# Number of Curves:  1
#
# Curve:             0
# Values/Curve:      89
#
542  1169.4895
541.82386  1163.5725
541.64773  1157.8046
541.47159  1152.1811
541.29545  1146.6975
541.11932  1141.3492
540.94318  1136.1319
540.76705  1131.0414
540.59091  1126.0734
540.41477  1121.224
540.23864  1116.4891
540.0625  1111.865
539.88636  1107.3479
539.71023  1102.9341
539.53409  1098.62
539.35795  1094.4022
539.18182  1090.2773
539.00568  1086.2418
538.82955  1082.2926
538.65341  1078.4265
538.47727  1074.6404
538.30114  1070.9313
538.125  1067.2962
537.94886  1063.7322
537.77273  1060.2367
537.59659  1056.8069
537.42045  1053.4403
537.24432  1050.1344
537.06818  1046.887
536.89205  1043.6959
536.71591  1040.5593
536.53977  1037.4755
536.36364  1034.4431
536.1875  1031.4614
536.01136  1028.5296
535.83523  1025.6479
535.65909  1022.8166
535.48295  1020.0372
535.30682  1017.3112
535.13068  1014.6415
534.95455  1012.0312
534.77841  1009.4846
534.60227  1007.0062
534.42614  1004.6016
534.25  1002.2766
534.07386  1000.0376
533.89773  997.89085
533.72159  995.84284
533.54545  993.89967
533.36932  992.0669
533.19318  990.34935
533.01705  988.75082
532.84091  987.27394
532.66477  985.91999
532.48864  984.6888
532.3125  983.57876
532.13636  982.58679
531.96023  981.70846
531.78409  980.93811
531.60795  980.26906
531.43182  979.6938
531.25568  979.20426
531.07955  978.79203
530.90341  978.44861
530.72727  978.16563
530.55114  977.93503
530.375  977.74923
530.19886  977.60121
530.02273  977.48467
529.84659  977.39396
529.67045  977.32421
529.49432  977.2712
529.31818  977.2314
529.14205  977.20188
528.96591  977.18025
528.78977  977.16461
528.61364  977.15344
528.4375  977.14556
528.26136  977.14008
528.08523  977.13632
527.90909  977.13377
527.73295  977.13208
527.55682  977.13097
527.38068  977.13026
527.20455  977.12982
527.02841  977.12955
526.85227  977.1294
526.67614  977.12933
526.5  977.1293

# Result Name:       Peak Fit
# Number of Curves:  1
#
# Curve:             0
# Values/Curve:      89
#
542  1169.4895
541.82386  1163.5725
541.64773  1157.8046
541.47159  1152.1811
541.29545  1146.6975
541.11932  1141.3492
540.94318  1136.132
540.76705  1131.0414
540.59091  1126.0735
540.41477  1121.2242
540.23864  1116.4895
540.0625  1111.8657
539.88636  1107.3491
539.71023  1102.9362
539.53409  1098.6237
539.35795  1094.4084
539.18182  1090.2876
539.00568  1086.2588
538.82955  1082.3201
538.65341  1078.4705
538.47727  1074.7097
538.30114  1071.0391
538.125  1067.4616
537.94886  1063.9828
537.77273  1060.611
537.59659  1057.3584
537.42045  1054.2421
537.24432  1051.2843
537.06818  1048.5138
536.89205  1045.9666
536.71591  1043.6858
536.53977  1041.7225
536.36364  1040.1346
536.1875  1038.9856
536.01136  1038.3427
535.83523  1038.2736
535.65909  1038.8423
535.48295  1040.1042
535.30682  1042.1
535.13068  1044.8504
534.95455  1048.3492
534.77841  1052.5586
534.60227  1057.4045
534.42614  1062.7748
534.25  1068.5192
534.07386  1074.4522
533.89773  1080.359
533.72159  1086.0043
533.54545  1091.1437
533.36932  1095.5363
533.19318  1098.9587
533.01705  1101.2191
532.84091  1102.1685
532.66477  1101.7113
532.48864  1099.811
532.3125  1096.4932
532.13636  1091.8431
531.96023  1086.0003
531.78409  1079.1494
531.60795  1071.5078
531.43182  1063.3126
531.25568  1054.8066
531.07955  1046.2253
530.90341  1037.7848
530.72727  1029.6733
530.55114  1022.0444
530.375  1015.0139
530.19886  1008.659
530.02273  1003.0205
529.84659  998.10668
529.67045  993.89834
529.49432  990.35492
529.31818  987.42057
529.14205  985.02993
528.96591  983.11326
528.78977  981.60073
528.61364  980.42563
528.4375  979.52668
528.26136  978.84942
528.08523  978.34687
527.90909  977.97954
527.73295  977.71501
527.55682  977.52734
527.38068  977.39614
527.20455  977.30576
527.02841  977.24441
526.85227  977.20338
526.67614  977.17633
526.5  977.15876

# Region:            N 1s
# Acquisition Date:  08/31/22 12:57:29 UTC
# Analysis Method:   XPS
# Analyzer:          Phoibos 100 R6
# Analyzer Lens:     LargeArea:1.5kV
# Analyzer Slit:     5:7x20\B:open
# Scan Mode:         FixedAnalyzerTransmission
# Curves/Scan:       1
# Values/Curve:      101
# Dwell Time:        0.8
# Excitation Energy: 1486.61
# Binding Energy:    405
# Pass Energy:       30
# Bias Voltage:      90
# Detector Voltage:  2600
# Eff. Workfunction: 4.309
# Source:            X-Ray Dummy
# Comment:           
#
# Cycle: 0
# Number of Scans: 50
#
# Cycle: 0, Curve: 0
# Acquisition Date: 08/31/22 12:57:29 UTC
#
# ColumnLabels: energy counts/s
#
405  929.5
404.9  924.15
404.8  919.55
404.7  926.1
404.6  918.5
404.5  918.3
404.4  919.85
404.3  924.225
404.2  923.85
404.1  913.8
404  920.025
403.9  914.3
403.8  922.775
403.7  921.025
403.6  921
403.5  923.85
403.4  916.55
403.3  924.9
403.2  920.15
403.1  922.025
403  918.875
402.9  915.3
402.8  925.375
402.7  915.925
402.6  919.4
402.5  927.025
402.4  926.375
402.3  919.55
402.2  922.875
402.1  917.775
402  929.275
401.9  921.05
401.8  916.775
401.7  933.6
401.6  925.15
401.5  939.025
401.4  920.7
401.3  938.475
401.2  934.025
401.1  920.35
401  930.6
400.9  929.875
400.8  927.175
400.7  930.925
400.6  929.775
400.5  920.925
400.4  928.175
400.3  931.675
400.2  929.475
400.1  927.125
400  934.65
399.9  920.8
399.8  922
399.7  921.45
399.6  919.9
399.5  924.05
399.4  923.525
399.3  913.525
399.2  911.35
399.1  912.375
399  910.3
398.9  911.3
398.8  916.45
398.7  909.15
398.6  909.525
398.5  915.45
398.4  897.1
398.3  898.325
398.2  904.75
398.1  897.075
398  897.975
397.9  898.325
397.8  900.475
397.7  884.55
397.6  895.65
397.5  894.875
397.4  895.4
397.3  895.05
397.2  895.75
397.1  886.7
397  901.35
396.9  895.3
396.8  883.775
396.7  888.85
396.6  891.425
396.5  894.225
396.4  880.625
396.3  894.05
396.2  889.625
396.1  895.05
396  894.575
395.9  890.1
395.8  886.85
395.7  883.275
395.6  896.725
395.5  886.925
395.4  889.05
395.3  894.025
395.2  886.95
395.1  890.775
395  898

# Region:            Si 2p
# Acquisition Date:  08/31/22 11:30:23 UTC
# Analysis Method:   XPS
# Analyzer:          Phoibos 100 R6
# Analyzer Lens:     LargeArea:1.5kV
# Analyzer Slit:     5:7x20\B:open
# Scan Mode:         FixedAnalyzerTransmission
# Curves/Scan:       1
# Values/Curve:      111
# Dwell Time:        0.8
# Excitation Energy: 1486.61
# Binding Energy:    112
# Pass Energy:       30
# Bias Voltage:      90
# Detector Voltage:  2600
# Eff. Workfunction: 4.309
# Source:            X-Ray Dummy
# Comment:           
#
# Cycle: 0
# Number of Scans: 20
#
# Cycle: 0, Curve: 0
# Acquisition Date: 08/31/22 11:30:23 UTC
#
# ColumnLabels: energy counts/s
#
112  947
111.9  933.1875
111.8  948.25
111.7  956.625
111.6  937.0625
111.5  940.75
111.4  934
111.3  918.25
111.2  930.9375
111.1  929.5
111  927.25
110.9  922.1875
110.8  925.875
110.7  920.125
110.6  910.8125
110.5  921.25
110.4  922.5
110.3  917.5625
110.2  919.625
110.1  919.75
110  923.875
109.9  916.5
109.8  903.375
109.7  913.75
109.6  904.6875
109.5  905.375
109.4  911.5625
109.3  901.125
109.2  906.6875
109.1  902.0625
109  911.5
108.9  901.8125
108.8  898.375
108.7  899.6875
108.6  910.5625
108.5  909.0625
108.4  908.25
108.3  908.25
108.2  919.5625
108.1  908.6875
108  906.4375
107.9  900.0625
107.8  918.375
107.7  898.6875
107.6  906.9375
107.5  913
107.4  908.6875
