# Created by:        SpecsLab Prodigy, Version 4.60.2-r85849 
#
# XY-Serializer Export Settings:
#   Comment Prefix:           #
#   Output meta data:         yes
#   Energy Axis:              Binding Energy
#   Count Rate:               Counts per Second
#   Separate Scan Data:       no
#   Separate Channel Data:    no
#   External Channel Data:    yes
#   Transmission Function:    no
#   ErrorBar:                 no
#   Operation Results:        yes
#   Time Zone Format:         UTC
#
# Group:             Spectrum Group
#
# Region:            overview
# Acquisition Date:  08/22/22 13:55:00 UTC
# Analysis Method:   XPS
# Analyzer:          Phoibos 100 R6
# Analyzer Lens:     MediumArea:1.5kV
# Analyzer Slit:     1:0.2x20\B:open
# Scan Mode:         FixedAnalyzerTransmission
# Curves/Scan:       1
# Values/Curve:      1205
# Dwell Time:        0.2
# Excitation Energy: 1486.61
# Binding Energy:    1200
# Pass Energy:       50
# Bias Voltage:      90
# Detector Voltage:  2600
# Eff. Workfunction: 4.309
# Source:            X-Ray Dummy
# Comment:           
#
# Cycle: 0
# Number of Scans: 1
#
# Cycle: 0, Curve: 0
# Acquisition Date: 08/22/22 13:55:00 UTC
#
# ColumnLabels: energy counts/s
#
1200  10750
1199  10440
1198  10365
1197  10945
1196  11115
1195  10835
1194  10545
1193  10600
1192  10850
1191  10770
1190  10425
1189  10600
1188  10095
1187  10435
1186  10260
1185  9990
1184  9910
1183  10030
1182  9720
1181  9700
1180  9570
1179  9350
1178  9405
1177  9305
1176  9730
1175  9420
1174  10345
1173  9500
1172  9665
1171  9585
1170  9830
1169  9840
1168  9540
1167  9390
1166  9770
1165  10110
1164  9740
1163  9445
1162  9885
1161  10050
1160  9815
1159  9730
1158  10125
1157  9880
1156  10135
1155  9640
1154  9735
1153  9645
1152  9735
1151  9650
1150  9680
1149  9695
1148  9840
1147  9630
1146  9390
1145  9315
1144  9235
1143  8965
1142  8675
1141  8885
1140  8255
1139  8460
1138  8090
1137  8065
1136  8100
1135  7925
1134  7820
1133  7440
1132  7340
1131  7480
1130  7280
1129  7175
1128  7315
1127  7285
1126  7200
1125  7155
1124  7305
1123  7220
1122  6935
1121  7160
1120  7265
1119  7070
1118  7100
1117  6905
1116  7035
1115  7095
1114  7220
1113  7100
1112  7195
1111  6850
1110  7000
1109  7215
1108  7145
1107  7160
1106  7300
1105  7325
1104  7395
1103  7400
1102  7310
1101  7500
1100  7415
1099  7580
1098  7285
1097  7540
1096  7540
1095  7770
1094  7945
1093  8695
1092  8720
1091  8865
1090  9145
1089  9635
1088  10890
1087  11710
1086  12135
1085  11455
1084  10025
1083  9735
1082  9025
1081  8980
1080  9285
1079  9010
1078  8050
1077  7420
1076  6530
1075  6035
1074  5815
1073  5420
1072  5530
1071  5350
1070  5105
1069  5405
1068  5490
1067  5655
1066  5240
1065  5330
1064  5160
1063  5605
1062  5355
1061  5275
1060  5215
1059  5510
1058  5360
1057  4840
1056  4685
1055  5060
1054  5245
1053  4615
1052  4875
1051  4995
1050  4720
1049  4600
1048  4455
1047  4655
1046  4635
1045  4395
1044  4750
1043  4635
1042  4650
1041  4775
1040  4585
1039  4835
1038  4745
1037  4585
1036  4810
1035  4510
1034  4790
1033  4660
1032  4130
1031  4640
1030  4720
1029  4555
1028  4290
1027  4360
1026  4580
1025  4480
1024  4405
1023  4690
1022  4580
1021  4325
1020  4570
1019  4570
1018  4775
1017  4725
1016  4610
1015  4660
1014  4585
1013  4850
1012  4680
1011  4860
1010  4750
1009  4530
1008  4545
1007  4905
1006  4465
1005  4525
1004  4465
1003  4805
1002  4600
1001  4660
1000  4565
999  4745
998  4810
997  4790
996  4785
995  4705
994  4855
993  4615
992  4720
991  4445
990  4490
989  4570
988  4755
987  4590
986  4770
985  4580
984  4550
983  4405
982  4140
981  4545
980  4515
979  4850
978  4610
977  4740
976  5305
975  5610
974  5840
973  5365
972  5000
971  4425
970  4755
969  4560
968  4365
967  4310
966  4190
965  4320
964  4140
963  4080
962  4000
961  4145
960  4185
959  4125
958  3900
957  4065
956  4120
955  4130
954  4095
953  4150
952  4355
951  4040
950  4115
949  4160
948  3940
947  4000
946  4050
945  4255
944  4135
943  3910
942  3875
941  4085
940  3770
939  4115
938  4345
937  3980
936  4115
935  4130
934  3815
933  4320
932  4195
931  3865
930  4135
929  4135
928  4060
927  4070
926  4205
925  4215
924  3865
923  4150
922  4335
921  3915
920  4005
919  4300
918  3935
917  4015
916  3920
915  3970
914  3850
913  3895
912  3940
911  3870
910  4200
909  3990
908  4490
907  4205
906  4025
905  4085
904  3960
903  4370
902  3835
901  4070
900  3890
899  4040
898  4325
897  4075
896  4315
895  4075
894  3920
893  4160
892  3985
891  4075
890  4295
889  4135
888  4015
887  4020
886  4190
885  4100
884  4235
883  4200
882  4420
881  4260
880  4145
879  3840
878  4320
877  3790
876  4105
875  4025
874  4305
873  4250
872  4095
871  4020
870  4095
869  4130
868  4180
867  4205
866  3855
865  4080
864  4340
863  4235
862  4235
861  4115
860  4155
859  4470
858  4100
857  4115
856  4300
855  3990
854  4235
853  4210
852  4325
851  4205
850  4300
849  4330
848  4430
847  4360
846  4300
845  4375
844  4265
843  4285
842  4270
841  4255
840  4350
839  4035
838  4285
837  4170
836  4150
835  4440
834  4305
833  4265
832  4680
831  4375
830  4555
829  4730
828  4835
827  4805
826  4770
825  4550
824  4565
823  4390
822  4430
821  4265
820  4345
819  4415
818  4340
817  4265
816  4270
815  4465
814  4205
813  3940
812  4465
811  4575
810  4100
809  4290
808  4345
807  4120
806  4095
805  4135
804  4075
803  4375
802  4135
801  4260
800  4360
799  4075
798  4135
797  4120
796  4295
795  4250
794  4425
793  4095
792  4245
791  4065
790  4270
789  4220
788  4265
787  4255
786  4095
785  4125
784  4355
783  4280
782  4330
781  4435
780  4210
779  4155
778  4265
777  4270
776  4375
775  4260
774  4410
773  4000
772  4485
771  4285
770  4195
769  4645
768  4165
767  4400
766  4315
765  4420
764  4640
763  4690
762  4265
761  4395
760  4510
759  4780
758  4400
757  4760
756  4420
755  4555
754  4635
753  4455
752  4250
751  4425
750  4440
749  4580
748  4425
747  4445
746  4405
745  4355
744  4535
743  4335
742  4355
741  4565
740  4260
739  4310
738  4485
737  4290
736  4545
735  4535
734  4865
733  4720
732  4630
731  4720
730  4715
729  4520
728  4630
727  4750
726  4590
725  4840
724  4950
723  4500
722  4660
721  4525
720  4845
719  4465
718  4685
717  4880
716  5175
715  4835
714  4825
713  4630
712  4645
711  4685
710  5135
709  5065
708  4870
707  5465
706  5990
705  6445
704  6740
703  6290
702  5660
701  5160
700  4925
699  4975
698  4625
697  4595
696  4860
695  4600
694  4650
693  4595
692  4455
691  4445
690  4140
689  4565
688  4470
687  4685
686  4660
685  4765
684  4690
683  4590
682  4430
681  4775
680  4720
679  4515
678  4485
677  4470
676  4465
675  4560
674  4715
673  4645
672  4570
671  4910
670  5640
669  6400
668  7315
667  8630
666  8790
665  7695
664  6645
663  5355
662  4900
661  4730
660  4400
659  4515
658  4405
657  4440
656  4220
655  4380
654  3940
653  4050
652  4265
651  3980
650  4040
649  3885
648  3510
647  3630
646  3990
645  4115
644  3880
643  3970
642  4105
641  3800
640  3635
639  3785
638  3840
637  3740
636  3690
635  3885
634  3855
633  3655
632  3635
631  3855
630  3900
629  3770
628  3900
627  3585
626  3840
625  3810
624  3950
623  4015
622  3745
621  3860
620  3905
619  3795
618  4045
617  3770
616  3655
615  3940
614  3795
613  4150
612  4055
611  3670
610  3845
609  3700
608  3505
607  3925
606  4120
605  4035
604  3835
603  3665
602  3995
601  4065
600  4100
599  4190
598  4055
597  3925
596  4345
595  4000
594  3945
593  4110
592  3755
591  4150
590  4165
589  3930
588  3960
587  4205
586  3975
585  3985
584  4075
583  3825
582  4180
581  4080
580  4055
579  4230
578  3915
577  4015
576  4320
575  3965
574  3955
573  4140
572  4030
571  4075
570  4340
569  4415
568  4290
567  4080
566  4110
565  3925
564  4130
563  4100
562  4350
561  4170
560  4250
559  4220
558  4200
557  4350
556  4335
555  4150
554  4245
553  4460
552  4550
551  4530
550  4290
549  4340
548  4625
547  4275
546  4335
545  4230
544  4210
543  4260
542  4215
541  3990
540  4505
539  4295
538  4200
537  4330
536  4350
535  4300
534  4280
533  4885
532  6185
531  7915
530  7540
529  5570
528  4225
527  4110
526  4195
525  3905
524  4095
523  4085
522  4010
521  4275
520  4285
519  4400
518  4035
517  3935
516  4085
515  3970
514  4020
513  4085
512  4110
511  3915
510  3825
509  4015
508  4135
507  3960
506  3845
505  4260
504  4115
503  3850
502  4030
501  4180
500  4015
499  3865
498  4245
497  4705
496  4820
495  4580
494  4180
493  4060
492  4150
491  4135
490  4175
489  4255
488  4690
487  5200
486  4830
485  4110
484  3925
483  3935
482  3835
481  3620
480  3920
479  4115
478  4085
477  4195
476  4005
475  3970
474  3950
473  4265
472  4350
471  4395
470  4250
469  4195
468  4305
467  4345
466  4465
465  4165
464  4420
463  4360
462  4355
461  4525
460  4505
459  4190
458  4225
457  4300
456  4955
455  6230
454  10335
453  16280
452  14350
451  7475
450  4140
449  3745
448  4710
447  8765
446  17160
445  21525
444  13630
443  6365
442  3600
441  2695
440  2265
439  1940
438  1855
437  2200
436  2805
435  2995
434  2675
433  2560
432  2080
431  1605
430  1590
429  1310
428  1385
427  1305
426  1470
425  1440
424  1505
423  1395
422  1365
421  1220
420  1285
419  1255
418  1280
417  1355
416  1240
415  1395
414  1230
413  1335
412  1280
411  1350
410  1275
409  1470
408  1215
407  1390
406  1190
405  1375
404  1300
403  1270
402  1225
401  1225
400  1285
399  1245
398  1250
397  1270
396  1120
395  1450
394  1235
393  1375
392  1405
391  1220
390  1245
389  1445
388  1320
387  1385
386  1315
385  1415
384  1360
383  1480
382  1435
381  1390
380  1325
379  1570
378  1375
377  1365
376  1475
375  1310
374  1490
373  1380
372  1360
371  1145
370  1170
369  1010
368  1185
367  1360
366  1160
365  1355
364  1220
363  1280
362  1275
361  1220
360  1255
359  1245
358  1240
357  1240
356  1185
355  1220
354  1230
353  1240
352  1350
351  1090
350  1135
349  1195
348  1255
347  1295
346  1295
345  1305
344  1265
343  1125
342  1260
341  1255
340  1365
339  1280
338  1320
337  1290
336  1280
335  1235
334  1305
333  1065
332  1135
331  1125
330  1250
329  970
328  1255
327  1280
326  1050
325  1270
324  1215
323  1325
322  1290
321  1205
320  1195
319  1170
318  1285
317  1270
316  1325
315  1190
314  1265
313  1300
312  1300
311  1245
310  1415
309  1420
308  1275
307  1390
306  1310
305  1355
304  1225
303  1175
302  1315
301  1305
300  1295
299  1315
298  1215
297  1215
296  1345
295  1230
294  1205
293  1190
292  1340
291  1195
290  1190
289  1315
288  1285
287  1370
286  1385
285  1235
284  1190
283  1315
282  1325
281  1295
280  1285
279  1260
278  1255
277  1275
276  1365
275  1295
274  1265
273  1200
272  1250
271  1280
270  1290
269  1410
268  1210
267  1290
266  1275
265  1315
264  1305
263  1330
262  1490
261  1355
260  1360
259  1410
258  1365
257  1225
256  1120
255  1125
254  1460
253  1200
252  1295
251  1360
250  1380
249  1340
248  1210
247  1290
246  1365
245  1545
244  1375
243  1425
242  1390
241  1305
240  1170
239  1370
238  1245
237  1380
236  1380
235  1530
234  1490
233  1270
232  1385
231  1355
230  1440
229  1265
228  1305
227  1345
226  1405
225  1325
224  1380
223  1375
222  1295
221  1330
220  1290
219  1385
218  1300
217  1470
216  1240
215  1420
214  1260
213  1220
212  1185
211  1310
210  1345
209  1450
208  1385
207  1360
206  1110
205  1255
204  1320
203  1280
202  1395
201  1420
200  1520
199  1400
198  1505
197  1355
196  1430
195  1430
194  1420
193  1455
192  1395
191  1265
190  1415
189  1420
188  1420
187  1365
186  1455
185  1480
184  1240
183  1460
182  1310
181  1395
180  1345
179  1460
178  1470
177  1450
176  1420
175  1600
174  1380
173  1435
172  1430
171  1465
170  1510
169  1490
168  1325
167  1390
166  1305
165  1665
164  1290
163  1395
162  1385
161  1320
160  1485
159  1500
158  1385
157  1455
156  1260
155  1395
154  1305
153  1430
152  1290
151  1395
150  1390
149  1380
148  1265
147  1485
146  1490
145  1380
144  1510
143  1570
142  1535
141  1465
140  1495
139  1410
138  1435
137  1495
136  1555
135  1490
134  1470
133  1420
132  1670
131  1560
130  1395
129  1490
128  1605
127  1710
126  1580
125  1680
124  1960
123  1685
122  1655
121  1555
120  1585
119  1610
118  1350
117  1550
116  1495
115  1350
114  1475
113  1375
112  1490
111  1350
110  1375
109  1420
108  1435
107  1375
106  1545
105  1595
104  1515
103  1450
102  1530
101  1530
100  1490
99  1625
98  1505
97  1525
96  1590
95  1525
94  1780
93  1590
92  1620
91  1555
90  1555
89  1755
88  1800
87  1905
86  1695
85  1695
84  1890
83  1940
82  1815
81  1690
80  1655
79  1855
78  1665
77  1765
76  1625
75  1490
74  1560
73  1515
72  1530
71  1285
70  1255
69  1270
68  1280
67  1265
66  1190
65  1200
64  1165
63  1110
62  1065
61  1085
60  945
59  1115
58  1095
57  1010
56  1015
55  1045
54  1150
53  1000
52  1060
51  1140
50  935
49  1000
48  1065
47  980
46  1140
45  1045
44  1040
43  1045
42  1170
41  1115
40  1145
39  1100
38  1120
37  1230
36  1265
35  1030
34  1095
33  1240
32  1205
31  1060
30  1140
29  1035
28  1135
27  1295
26  1340
25  1265
24  1180
23  1230
22  1270
21  1585
20  2975
19  4345
18  4065
17  2215
16  1245
15  965
14  815
13  765
12  825
11  890
10  990
9  1055
8  1160
7  915
6  810
5  855
4  885
3  640
2  640
1  665
-2.2737368e-013  635
-1  665
-2  685
-3  575
-4  665

# Region:            C1s
# Acquisition Date:  08/22/22 14:26:39 UTC
# Analysis Method:   XPS
# Analyzer:          Phoibos 100 R6
# Analyzer Lens:     LargeArea:1.5kV
# Analyzer Slit:     1:0.2x20\B:open
# Scan Mode:         FixedAnalyzerTransmission
# Curves/Scan:       1
# Values/Curve:      151
# Dwell Time:        0.8
# Excitation Energy: 1486.61
# Binding Energy:    295
# Pass Energy:       30
# Bias Voltage:      90
# Detector Voltage:  2600
# Eff. Workfunction: 4.309
# Source:            X-Ray Dummy
# Comment:           
#
# Cycle: 0
# Number of Scans: 2
#
# Cycle: 0, Curve: 0
# Acquisition Date: 08/22/22 14:26:39 UTC
#
# ColumnLabels: energy counts/s
#
295  917.5
294.9  988.125
294.8  938.125
294.7  942.5
294.6  910.625
294.5  913.125
294.4  920
294.3  929.375
294.2  954.375
294.1  965
294  966.25
293.9  881.875
293.8  936.875
293.7  904.375
293.6  929.375
293.5  903.75
293.4  949.375
293.3  940.625
293.2  987.5
293.1  915.625
293  965
292.9  955.625
292.8  933.75
292.7  947.5
292.6  936.25
292.5  971.25
292.4  921.25
292.3  976.25
292.2  951.875
292.1  971.875
292  965
291.9  957.5
291.8  970.625
291.7  961.25
291.6  958.75
291.5  950.625
291.4  940.625
291.3  938.75
291.2  973.75
291.1  941.25
291  917.5
290.9  958.75
290.8  928.75
290.7  962.5
290.6  972.5
290.5  950.625
290.4  935
290.3  901.875
290.2  922.5
290.1  958.75
290  925
289.9  965.625
289.8  937.5
289.7  953.75
289.6  946.25
289.5  951.875
289.4  946.875
289.3  921.875
289.2  960.625
289.1  901.875
289  963.75
288.9  861.25
288.8  927.5
288.7  987.5
288.6  939.375
288.5  935
288.4  966.875
288.3  941.25
288.2  908.125
288.1  932.5
288  978.125
287.9  912.5
287.8  947.5
287.7  912.5
287.6  946.875
287.5  950.625
287.4  904.375
287.3  930.625
287.2  956.25
287.1  941.875
287  963.75
286.9  948.125
286.8  986.875
286.7  906.875
286.6  917.5
286.5  954.375
286.4  918.75
286.3  896.875
286.2  945
286.1  936.875
286  921.875
285.9  948.125
285.8  946.875
285.7  929.375
285.6  945.625
285.5  967.5
285.4  942.5
285.3  922.5
285.2  956.25
285.1  931.875
285  970
284.9  911.875
284.8  931.25
284.7  931.875
284.6  913.75
284.5  921.875
284.4  917.5
284.3  921.25
284.2  933.75
284.1  975.625
284  968.75
283.9  874.375
283.8  928.75
283.7  941.875
283.6  941.875
283.5  964.375
283.4  945.625
283.3  977.5
283.2  1000.625
283.1  915
283  959.375
282.9  946.25
282.8  995
282.7  908.125
282.6  970
282.5  971.25
282.4  929.375
282.3  952.5
282.2  911.25
282.1  986.25
282  987.5
281.9  965
281.8  951.875
281.7  942.5
281.6  939.375
281.5  917.5
281.4  955
281.3  961.25
281.2  939.375
281.1  946.875
281  916.25
280.9  947.5
280.8  937.5
280.7  928.75
280.6  936.25
280.5  911.875
280.4  951.25
280.3  951.875
280.2  945
280.1  928.75
280  948.75

# Region:            Ba3d
# Acquisition Date:  08/22/22 14:28:18 UTC
# Analysis Method:   XPS
# Analyzer:          Phoibos 100 R6
# Analyzer Lens:     LargeArea:1.5kV
# Analyzer Slit:     1:0.2x20\B:open
# Scan Mode:         FixedAnalyzerTransmission
# Curves/Scan:       1
# Values/Curve:      121
# Dwell Time:        0.8
# Excitation Energy: 1486.61
# Binding Energy:    789
# Pass Energy:       30
# Bias Voltage:      90
# Detector Voltage:  2600
# Eff. Workfunction: 4.309
# Source:            X-Ray Dummy
# Comment:           
#
# Cycle: 0
# Number of Scans: 2
#
# Cycle: 0, Curve: 0
# Acquisition Date: 08/22/22 14:28:18 UTC
#
# ColumnLabels: energy counts/s
#
789  5071.875
788.9  5189.375
788.8  5093.75
788.7  5120.625
788.6  5176.875
788.5  5191.875
788.4  5139.375
788.3  5047.5
788.2  5083.125
788.1  5145
788  5143.75
787.9  5167.5
787.8  5168.125
787.7  5131.875
787.6  5042.5
787.5  5101.875
787.4  5043.75
787.3  5183.125
787.2  5113.125
787.1  5070.625
787  5132.5
786.9  5102.5
786.8  5236.875
786.7  5018.75
786.6  5125
786.5  5074.375
786.4  5144.375
786.3  5161.875
786.2  5186.25
786.1  5176.875
786  5231.25
785.9  5115
785.8  5111.25
785.7  5151.25
785.6  5140
785.5  5196.875
785.4  5106.875
785.3  5143.75
785.2  5095
785.1  5160.625
785  5083.125
784.9  5165
784.8  5250
784.7  5184.375
784.6  5125
784.5  5204.375
784.4  5047.5
784.3  5147.5
784.2  5167.5
784.1  5076.25
784  5195
783.9  5153.75
783.8  5069.375
783.7  5153.125
783.6  5079.375
783.5  5165.625
783.4  5231.875
783.3  5206.875
783.2  5173.125
783.1  5215.625
783  5148.125
782.9  5146.25
782.8  5141.25
782.7  5116.875
782.6  5210
782.5  5118.75
782.4  5245
782.3  5078.125
782.2  5181.25
782.1  5163.125
782  5075.625
781.9  5181.875
781.8  5111.25
781.7  5209.375
781.6  5098.75
781.5  5147.5
781.4  5211.25
781.3  5094.375
781.2  5223.75
781.1  5133.75
781  5139.375
780.9  5073.125
780.8  5188.125
780.7  5132.5
780.6  5165
780.5  5113.125
780.4  5069.375
780.3  5240.625
780.2  5250.625
780.1  5125
780  5138.125
779.9  5225.625
779.8  5218.125
779.7  5113.75
779.6  5225.625
779.5  5116.25
779.4  5075
779.3  5233.125
779.2  5297.5
779.1  5073.125
779  5063.75
778.9  5229.375
778.8  5145.625
778.7  5108.125
778.6  5159.375
778.5  5226.875
778.4  5181.875
778.3  5161.25
778.2  5150
778.1  5199.375
778  5126.875
777.9  5177.5
777.8  5250.625
777.7  5162.5
777.6  5204.375
777.5  5140
777.4  5131.875
777.3  5230.625
777.2  5168.125
777.1  5197.5
777  5181.875

# Region:            Cl2p
# Acquisition Date:  08/22/22 14:29:48 UTC
# Analysis Method:   XPS
# Analyzer:          Phoibos 100 R6
# Analyzer Lens:     LargeArea:1.5kV
# Analyzer Slit:     1:0.2x20\B:open
# Scan Mode:         FixedAnalyzerTransmission
# Curves/Scan:       1
# Values/Curve:      111
# Dwell Time:        0.8
# Excitation Energy: 1486.61
# Binding Energy:    207
# Pass Energy:       30
# Bias Voltage:      90
# Detector Voltage:  2600
# Eff. Workfunction: 4.309
# Source:            X-Ray Dummy
# Comment:           
#
# Cycle: 0
# Number of Scans: 2
#
# Cycle: 0, Curve: 0
# Acquisition Date: 08/22/22 14:29:48 UTC
#
# ColumnLabels: energy counts/s
#
207  923.125
206.9  910
206.8  938.75
206.7  986.875
206.6  911.25
206.5  965
206.4  960.625
206.3  905.625
206.2  906.875
206.1  954.375
206  951.875
205.9  932.5
205.8  881.875
205.7  930.625
205.6  945.625
205.5  971.875
205.4  892.5
205.3  984.375
205.2  903.75
205.1  885
205  943.125
204.9  961.875
204.8  973.125
204.7  928.75
204.6  928.75
204.5  945.625
204.4  898.75
204.3  948.125
204.2  997.5
204.1  971.875
204  913.125
203.9  891.875
203.8  960.625
203.7  963.75
203.6  931.875
203.5  952.5
203.4  886.25
203.3  946.875
203.2  965.625
203.1  941.25
203  960.625
202.9  922.5
202.8  889.375
202.7  935
202.6  936.25
202.5  916.25
202.4  962.5
202.3  922.5
202.2  904.375
202.1  917.5
202  920
201.9  939.375
201.8  963.75
201.7  914.375
