# Created by:        SpecsLab Prodigy, Version 4.60.2-r85849 
#
# XY-Serializer Export Settings:
#   Comment Prefix:           #
#   Output meta data:         yes
#   Energy Axis:              Binding Energy
#   Count Rate:               Counts per Second
#   Separate Scan Data:       no
#   Separate Channel Data:    no
#   External Channel Data:    yes
#   Transmission Function:    no
#   ErrorBar:                 no
#   Operation Results:        yes
#   Time Zone Format:         UTC
#
# Group:             Spectrum Group
#
# Region:            overview
# Acquisition Date:  08/22/22 17:19:46 UTC
# Analysis Method:   XPS
# Analyzer:          Phoibos 100 R6
# Analyzer Lens:     MediumArea:1.5kV
# Analyzer Slit:     1:0.2x20\B:open
# Scan Mode:         FixedAnalyzerTransmission
# Curves/Scan:       1
# Values/Curve:      1205
# Dwell Time:        0.2
# Excitation Energy: 1486.61
# Binding Energy:    1200
# Pass Energy:       50
# Bias Voltage:      90
# Detector Voltage:  2600
# Eff. Workfunction: 4.309
# Source:            X-Ray Dummy
# Comment:           
#
# Cycle: 0
# Number of Scans: 1
#
# Cycle: 0, Curve: 0
# Acquisition Date: 08/22/22 17:19:46 UTC
#
# ColumnLabels: energy counts/s
#
1200  9060
1199  8725
1198  9175
1197  8745
1196  9145
1195  9000
1194  8910
1193  8755
1192  8700
1191  9005
1190  8955
1189  8745
1188  9000
1187  8760
1186  8600
1185  8365
1184  8520
1183  8495
1182  8220
1181  8635
1180  8650
1179  8535
1178  7980
1177  8295
1176  8165
1175  8370
1174  7890
1173  8330
1172  8395
1171  8380
1170  8455
1169  8290
1168  8225
1167  8310
1166  8300
1165  7620
1164  7995
1163  8070
1162  8035
1161  8250
1160  8240
1159  7865
1158  8290
1157  8270
1156  8020
1155  8425
1154  7895
1153  7905
1152  8100
1151  7960
1150  7915
1149  8360
1148  8220
1147  7905
1146  7960
1145  7685
1144  8020
1143  7700
1142  7640
1141  7205
1140  6835
1139  7230
1138  7235
1137  7035
1136  6655
1135  6795
1134  6515
1133  6810
1132  6425
1131  6535
1130  6325
1129  6550
1128  6280
1127  6560
1126  6295
1125  6610
1124  6415
1123  6385
1122  6640
1121  6275
1120  6065
1119  6160
1118  6355
1117  6215
1116  6040
1115  6340
1114  6290
1113  6250
1112  6265
1111  6720
1110  6400
1109  6365
1108  6440
1107  6320
1106  6035
1105  6650
1104  6355
1103  6325
1102  6130
1101  6245
1100  6265
1099  6580
1098  6240
1097  6280
1096  6440
1095  6885
1094  6670
1093  6680
1092  6850
1091  6775
1090  7115
1089  7875
1088  8690
1087  9095
1086  9135
1085  8790
1084  8530
1083  7655
1082  6850
1081  7115
1080  7330
1079  7325
1078  6680
1077  6080
1076  5480
1075  5045
1074  4850
1073  4685
1072  4710
1071  4725
1070  5035
1069  4505
1068  4770
1067  4625
1066  4785
1065  4470
1064  4645
1063  4720
1062  4940
1061  4795
1060  4310
1059  4560
1058  4515
1057  4445
1056  4135
1055  4350
1054  4175
1053  4130
1052  4285
1051  4220
1050  3995
1049  4115
1048  4070
1047  4145
1046  4000
1045  4105
1044  4050
1043  4060
1042  4075
1041  4055
1040  3960
1039  4060
1038  3875
1037  4040
1036  4145
1035  3940
1034  4110
1033  4140
1032  3900
1031  3990
1030  4130
1029  3955
1028  4115
1027  4150
1026  3930
1025  3955
1024  4045
1023  4100
1022  4380
1021  3890
1020  4305
1019  4055
1018  4405
1017  4070
1016  4255
1015  4025
1014  4195
1013  4245
1012  4175
1011  4100
1010  4075
1009  4055
1008  4120
1007  4285
1006  3915
1005  4205
1004  4070
1003  3740
1002  4090
1001  3990
1000  4180
999  4125
998  4440
997  3995
996  4560
995  4130
994  4110
993  4100
992  4190
991  3840
990  4065
989  4390
988  3920
987  4155
986  3980
985  3915
984  4095
983  4040
982  3905
981  4135
980  3870
979  4350
978  3855
977  4565
976  4320
975  4805
974  5020
973  4455
972  4305
971  3995
970  4000
969  4145
968  3710
967  3905
966  3485
965  3680
964  3635
963  3570
962  3520
961  3495
960  3640
959  3495
958  3705
957  3605
956  3535
955  3735
954  3400
953  3560
952  3720
951  3605
950  3585
949  3430
948  3535
947  3600
946  3650
945  3630
944  3500
943  3535
942  3735
941  3575
940  3620
939  3430
938  3445
937  3675
936  3380
935  3490
934  3525
933  3505
932  3750
931  3625
930  3710
929  3495
928  3655
927  3700
926  3515
925  3710
924  3730
923  3645
922  3785
921  3980
920  3555
919  3275
918  3550
917  3380
916  3495
915  3840
914  3445
913  3645
912  3635
911  3640
910  3700
909  3600
908  3615
907  3475
906  3605
905  3695
904  3470
903  3600
902  3580
901  3405
900  3535
899  3430
898  3895
897  3860
896  3585
895  3675
894  3910
893  3635
892  3700
891  3570
890  3930
889  3890
888  3615
887  3710
886  3740
885  3525
884  3645
883  3695
882  3760
881  3740
880  3660
879  3960
878  3635
877  3855
876  3750
875  3615
874  3730
873  3895
872  3555
871  3985
870  3625
869  3600
868  3970
867  4010
866  3665
865  3680
864  3820
863  3670
862  3590
861  3695
860  3645
859  3605
858  3765
857  4025
856  3595
855  3715
854  3710
853  4020
852  3855
851  3870
850  3815
849  3905
848  3955
847  3940
846  3800
845  3695
844  3980
843  3815
842  3860
841  4035
840  4165
839  4030
838  3910
837  3785
836  4140
835  3860
834  4090
833  3800
832  4050
831  4120
830  4120
829  4235
828  4080
827  4315
826  4165
825  3900
824  4145
823  3890
822  3760
821  4100
820  3870
819  3770
818  3870
817  3775
816  3735
815  3855
814  3775
813  3840
812  3685
811  4025
810  3745
809  3625
808  3770
807  3820
806  3845
805  3620
804  3610
803  3615
802  4030
801  3805
800  3890
799  3880
798  3985
797  3615
796  3885
795  3760
794  3725
793  3795
792  3960
791  3715
790  3890
789  3905
788  3610
787  3845
786  3970
785  3765
784  3855
783  3780
782  4185
781  4035
780  3920
779  3835
778  3665
777  3730
776  4000
775  4085
774  3810
773  3695
772  4140
771  3805
770  3865
769  3725
768  4090
767  3830
766  3965
765  3975
764  3935
763  3820
762  3935
761  3765
760  3795
759  3960
758  4100
757  4385
756  3885
755  4105
754  4060
753  3810
752  3980
751  3980
750  3940
749  3920
748  4055
747  4135
746  4355
745  4270
744  4010
743  4095
742  4070
741  4145
740  3985
739  4020
738  3840
737  4175
736  4165
735  3985
734  4200
733  4150
732  4230
731  4160
730  4140
729  4015
728  4045
727  4130
726  4265
725  4030
724  4345
723  4490
722  4120
721  4285
720  4385
719  4320
718  4325
717  4495
716  4390
715  4460
714  4155
713  4205
712  4295
711  4060
710  4195
709  4505
708  4350
707  4910
706  5640
705  5990
704  6035
703  5430
702  5035
701  5020
700  4440
699  4300
698  4530
697  4460
696  4560
695  4440
694  4555
693  4625
692  4680
691  4700
690  4710
689  4420
688  4685
687  4790
686  4730
685  4740
684  4720
683  4515
682  4755
681  4615
680  4895
679  4960
678  4450
677  4610
676  4320
675  4505
674  4475
673  4475
672  4800
671  4805
670  5465
669  6015
668  7205
667  8145
666  8005
665  7130
664  5680
663  5225
662  4515
661  4265
660  4495
659  4620
658  4295
657  4495
656  4530
655  4655
654  4365
653  4005
652  4040
651  3950
650  3790
649  3510
648  3925
647  4030
646  4070
645  4045
644  3650
643  3710
642  3945
641  3840
640  3780
639  3735
638  3810
637  3750
636  4140
635  4120
634  4125
633  3725
632  3725
631  3795
630  3855
629  4095
628  3975
627  3900
626  4050
625  3980
624  3905
623  3895
622  3985
621  4005
620  3970
619  3990
618  4110
617  3975
616  3795
615  3920
614  4030
613  4150
612  3900
611  3920
610  3965
609  3970
608  4100
607  3885
606  4175
605  3915
604  3980
603  3920
602  4110
601  3905
600  4035
599  4185
598  4200
597  4025
596  4090
595  4060
594  3995
593  4120
592  4115
591  3945
590  4295
589  4355
588  3985
587  4165
586  3910
585  4115
584  4325
583  4345
582  4135
581  4300
580  4245
579  4065
578  4310
577  4105
576  4190
575  4220
574  4130
573  4210
572  4115
571  4200
570  4115
569  4210
568  4310
567  4135
566  4335
565  4095
564  4395
563  4185
562  4085
561  4135
560  4265
559  4700
558  4550
557  4240
556  4415
555  4270
554  4150
553  4465
552  4370
551  4565
550  4365
549  4725
548  4505
547  4700
546  4655
545  4290
544  4375
543  4225
542  4480
541  4320
540  4390
539  4165
538  4100
537  4210
536  4385
535  4255
534  4480
533  5120
532  6760
531  7885
530  6855
529  4875
528  4075
527  4065
526  4085
525  4110
524  4125
523  4260
522  4135
521  4460
520  4175
519  4560
518  4440
517  3945
516  4280
515  4230
514  4040
513  4235
512  3995
511  4230
510  4000
509  4180
508  4275
507  4190
506  4145
505  4300
504  4420
503  3930
502  3975
501  4395
500  4225
499  4135
498  4360
497  4515
496  4950
495  4845
494  4185
493  4000
492  4125
491  4065
490  4410
489  4645
488  4880
487  5320
486  4610
485  4190
484  4230
483  4090
482  4285
481  4310
480  4475
479  4185
478  4285
477  4200
476  4485
475  4095
474  4540
473  4730
472  4475
471  4475
470  4715
469  4405
468  4755
467  4405
466  4495
465  4625
464  4775
463  4395
462  4095
461  3865
460  4085
459  3925
458  3815
457  3905
456  4525
455  6290
454  10130
453  14950
452  12305
451  5880
450  3720
449  3525
448  4660
447  8725
446  16745
445  18825
444  11450
443  5145
442  3080
441  2495
440  2185
439  1950
438  1865
437  2260
436  2770
435  2840
434  2605
433  2150
432  1845
431  1460
430  1510
429  1390
428  1400
427  1350
426  1600
425  1270
424  1460
423  1505
422  1615
421  1475
420  1330
419  1420
418  1375
417  1370
416  1390
415  1305
414  1340
413  1370
412  1155
411  1245
410  1235
409  1520
408  1350
407  1305
406  1225
405  1320
404  1340
403  1325
402  1280
401  1345
400  1355
399  1280
398  1400
397  1420
396  1230
395  1290
394  1415
393  1350
392  1305
391  1485
390  1490
389  1345
388  1340
387  1325
386  1320
385  1365
384  1375
383  1345
382  1385
381  1370
380  1465
379  1515
378  1425
377  1415
376  1435
375  1300
374  1535
373  1170
372  1280
371  1235
370  1205
369  1120
368  1215
367  1200
366  1275
365  1070
364  1250
363  1120
362  1230
361  1300
360  1380
359  1165
358  1130
357  1380
356  1280
355  1135
354  1480
353  1220
352  1375
351  1235
350  1170
349  1140
348  1145
347  1310
346  1150
345  1145
344  1235
343  1280
342  1150
341  1250
340  1385
339  1265
338  1410
337  1295
336  1165
335  1320
334  1400
333  1210
332  1320
331  1230
330  1415
329  1295
328  1175
327  1185
326  1280
325  1360
324  1285
323  1290
322  1225
321  1365
320  1355
319  1310
318  1280
317  1195
316  1295
315  1125
314  1320
313  1325
312  1595
311  1290
310  1190
309  1360
308  1250
307  1315
306  1335
305  1195
304  1315
303  1245
302  1385
301  1385
300  1230
299  1370
298  1265
297  1385
296  1455
295  1280
294  1180
293  1290
292  1235
291  1355
290  1360
289  1440
288  1345
287  1425
286  1665
285  1495
284  1455
283  1380
282  1425
281  1220
280  1250
279  1430
278  1360
277  1310
276  1345
275  1230
274  1370
273  1250
272  1365
271  1380
270  1225
269  1380
268  1370
267  1295
266  1420
265  1360
264  1230
263  1270
262  1215
261  1390
260  1455
259  1290
258  1265
257  1235
256  1085
255  1330
254  1360
253  1285
252  1240
251  1200
250  1345
249  1390
248  1345
247  1465
246  1215
245  1510
244  1365
243  1450
242  1305
241  1345
240  1285
239  1180
238  1395
237  1350
236  1235
235  1240
234  1320
233  1375
232  1235
231  1200
230  1530
229  1265
228  1460
227  1320
226  1385
225  1325
224  1365
223  1335
222  1350
221  1315
220  1370
219  1320
218  1450
217  1450
216  1445
215  1305
214  1385
213  1350
212  1285
211  1515
210  1465
209  1240
208  1325
207  1325
206  1315
205  1435
204  1455
203  1375
202  1310
201  1515
200  1425
199  1525
198  1385
197  1390
196  1340
195  1340
194  1430
193  1545
192  1435
191  1405
190  1305
189  1500
188  1320
187  1380
186  1330
185  1425
184  1270
183  1450
182  1465
181  1510
180  1230
179  1555
178  1420
177  1440
176  1360
175  1345
174  1440
173  1465
172  1475
171  1520
170  1460
169  1310
168  1440
167  1195
166  1495
165  1390
164  1310
163  1550
162  1470
161  1700
160  1255
159  1440
158  1480
157  1530
156  1410
155  1460
154  1620
153  1350
152  1465
151  1435
150  1295
149  1485
148  1505
147  1525
146  1570
145  1495
144  1460
143  1530
142  1500
141  1570
140  1580
139  1535
138  1485
137  1485
136  1685
135  1430
134  1365
133  1325
132  1490
131  1415
130  1440
129  1465
128  1480
127  1725
126  1565
125  1595
124  1840
123  1880
122  1560
121  1545
120  1565
119  1490
118  1610
117  1505
116  1450
115  1390
114  1410
113  1375
112  1210
111  1450
110  1440
109  1400
108  1450
107  1405
106  1465
105  1525
104  1450
103  1420
102  1685
101  1355
100  1510
99  1645
98  1610
97  1655
96  1565
95  1520
94  1575
93  1500
92  1730
91  1735
90  1455
89  1520
88  1645
87  1825
86  1660
85  1655
84  1745
83  1725
82  1615
81  1875
80  1860
79  1680
78  1770
77  1700
76  1580
75  1565
74  1430
73  1340
72  1275
71  1400
70  1225
69  1285
68  1375
67  1330
66  1125
65  995
64  1140
63  1150
62  1160
61  1170
60  1145
59  1075
58  890
57  965
56  990
55  1125
54  1070
53  1105
52  1200
51  1070
50  1075
49  1140
48  1035
47  1215
46  1165
45  1140
44  1270
43  1135
42  1150
41  1050
40  1265
39  1230
38  1105
37  1140
36  1290
35  1025
34  1045
33  1090
32  890
31  1125
30  1165
29  1275
28  1310
27  1290
26  1365
25  1210
24  1200
23  1140
22  1295
21  1870
20  2980
19  4235
18  3755
17  2005
16  1075
15  915
14  890
13  755
12  780
11  855
10  1040
9  1130
8  1055
7  990
6  985
5  820
4  805
3  635
2  610
1  680
-2.2737368e-013  640
-1  580
-2  660
-3  540
-4  650

# Region:            In3d
# Acquisition Date:  08/23/22 07:58:47 UTC
# Analysis Method:   XPS
# Analyzer:          Phoibos 100 R6
# Analyzer Lens:     LargeArea:1.5kV
# Analyzer Slit:     1:0.2x20\B:open
# Scan Mode:         FixedAnalyzerTransmission
# Curves/Scan:       1
# Values/Curve:      231
# Dwell Time:        0.8
# Excitation Energy: 1486.61
# Binding Energy:    460
# Pass Energy:       30
# Bias Voltage:      90
# Detector Voltage:  2600
# Eff. Workfunction: 4.309
# Source:            X-Ray Dummy
# Comment:           
#
# Cycle: 0
# Number of Scans: 2
#
# Cycle: 0, Curve: 0
# Acquisition Date: 08/23/22 07:58:47 UTC
#
# ColumnLabels: energy counts/s
#
460  3310.625
459.9  3398.125
459.8  3269.375
459.7  3255
459.6  3251.25
459.5  3258.75
459.4  3323.125
459.3  3228.75
459.2  3275
459.1  3222.5
459  3146.875
458.9  3248.125
458.8  3191.875
458.7  3260
458.6  3098.75
458.5  3141.875
458.4  3225.625
458.3  3202.5
458.2  3147.5
458.1  3186.25
458  3136.25
457.9  3197.5
457.8  3151.25
457.7  3307.5
457.6  3210
457.5  3225.625
457.4  3249.375
457.3  3176.875
457.2  3253.125
457.1  3298.125
457  3336.875
456.9  3252.5
456.8  3243.125
456.7  3356.875
456.6  3366.875
456.5  3401.875
456.4  3403.75
456.3  3426.875
456.2  3491.25
456.1  3577.5
456  3585.625
455.9  3661.25
455.8  3703.75
455.7  3865.625
455.6  3977.5
455.5  4058.125
455.4  4116.25
455.3  4274.375
455.2  4508.125
455.1  4645
455  4888.75
454.9  5099.375
454.8  5332.5
454.7  5696.25
454.6  6016.875
454.5  6411.25
454.4  6913.125
454.3  7257.5
454.2  7664.375
454.1  8013.75
454  8558.75
453.9  9108.125
453.8  9473.75
453.7  10150.625
453.6  10583.125
453.5  11135.625
453.4  11577.5
453.3  12015.625
453.2  12370
453.1  12639.375
453  12814.375
452.9  12987.5
452.8  12995.625
452.7  12614.375
452.6  12685.625
452.5  12093.125
452.4  11693.75
452.3  11079.375
452.2  10470.625
452.1  9685.625
452  9149.375
451.9  8308.75
451.8  7428.125
451.7  6790
451.6  6089.375
451.5  5525
451.4  4974.375
451.3  4675.625
451.2  4246.25
451.1  3848.75
451  3671.875
450.9  3437.5
450.8  3235.625
450.7  3094.375
450.6  2986.875
450.5  2918.125
450.4  2905
450.3  2751.875
450.2  2815
450.1  2658.75
450  2681.25
449.9  2631.875
449.8  2568.75
449.7  2665.625
449.6  2570.625
449.5  2649.375
449.4  2712.5
449.3  2667.5
449.2  2726.875
449.1  2738.125
449  2748.125
448.9  2818.125
448.8  2860
448.7  2865.625
448.6  3072.5
448.5  3140.625
448.4  3175.625
448.3  3296.875
448.2  3558.125
448.1  3658.75
448  3790
447.9  3963.75
447.8  4216.875
447.7  4356.875
447.6  4600.625
447.5  4972.5
447.4  5308.75
447.3  5752.5
447.2  6271.875
447.1  6583.75
447  7161.875
446.9  7648.125
446.8  8276.25
446.7  8882.5
446.6  9673.75
446.5  10185
446.4  10864.375
446.3  11907.5
446.2  12505
446.1  13275.625
446  14031.25
445.9  14678.125
445.8  15473.125
445.7  15883.75
445.6  16355.625
445.5  16740
445.4  17035.625
445.3  17120
445.2  17036.875
445.1  16851.25
445  16371.875
444.9  15634.375
444.8  14903.125
444.7  13951.25
444.6  13126.875
444.5  12153.125
444.4  11203.125
444.3  9906.25
444.2  9032.5
444.1  8081.875
444  7207.5
443.9  6485.625
443.8  5752.5
443.7  5214.375
443.6  4773.125
443.5  4268.75
443.4  4030.625
443.3  3854.375
443.2  3701.875
443.1  3419.375
443  3308.125
442.9  3260.625
442.8  3047.5
442.7  3028.75
442.6  2810.625
442.5  2881.25
442.4  2738.125
442.3  2586.875
442.2  2571.25
442.1  2518.75
442  2425
441.9  2387.5
441.8  2278.75
441.7  2298.125
441.6  2202.5
441.5  2211.25
441.4  2135.625
441.3  2115
441.2  2036.875
441.1  2063.75
441  2075.625
440.9  1996.25
440.8  1995.625
440.7  1964.375
440.6  1918.125
440.5  1935.625
440.4  1850
440.3  1796.875
440.2  1823.75
440.1  1805
440  1686.25
439.9  1732.5
439.8  1674.375
439.7  1681.875
439.6  1615.625
439.5  1578.75
439.4  1571.25
439.3  1629.375
439.2  1603.75
439.1  1601.25
439  1488.125
438.9  1520.625
438.8  1513.75
438.7  1536.875
438.6  1523.125
438.5  1546.875
438.4  1490.625
438.3  1457.5
438.2  1538.75
438.1  1523.75
438  1475.625
437.9  1627.5
437.8  1545
437.7  1494.375
437.6  1599.375
437.5  1594.375
437.4  1669.375
437.3  1664.375
437.2  1703.125
437.1  1733.125
437  1741.875

# Region:            Sn3d
# Acquisition Date:  08/22/22 17:44:56 UTC
# Analysis Method:   XPS
# Analyzer:          Phoibos 100 R6
# Analyzer Lens:     LargeArea:1.5kV
# Analyzer Slit:     1:0.2x20\B:open
# Scan Mode:         FixedAnalyzerTransmission
# Curves/Scan:       1
# Values/Curve:      231
# Dwell Time:        0.8
# Excitation Energy: 1486.61
# Binding Energy:    503
# Pass Energy:       30
# Bias Voltage:      90
# Detector Voltage:  2600
# Eff. Workfunction: 4.309
# Source:            X-Ray Dummy
# Comment:           
#
# Cycle: 0
# Number of Scans: 1
#
# Cycle: 0, Curve: 0
# Acquisition Date: 08/22/22 17:44:56 UTC
#
# ColumnLabels: energy counts/s
#
503  3562.5
502.9  3490
502.8  3451.25
502.7  3657.5
502.6  3551.25
502.5  3496.25
502.4  3468.75
502.3  3590
502.2  3487.5
502.1  3617.5
502  3510
501.9  3618.75
501.8  3517.5
501.7  3525
501.6  3661.25
501.5  3602.5
501.4  3526.25
501.3  3615
501.2  3658.75
501.1  3581.25
501  3478.75
500.9  3511.25
500.8  3515
500.7  3482.5
500.6  3678.75
500.5  3586.25
500.4  3666.25
500.3  3460
500.2  3558.75
500.1  3491.25
500  3627.5
499.9  3615
499.8  3481.25
499.7  3556.25
499.6  3536.25
499.5  3557.5
499.4  3488.75
499.3  3495
499.2  3526.25
499.1  3508.75
499  3618.75
498.9  3702.5
498.8  3661.25
498.7  3593.75
498.6  3645
498.5  3532.5
498.4  3605
498.3  3671.25
498.2  3656.25
498.1  3595
498  3681.25
497.9  3717.5
497.8  3772.5
497.7  3676.25
497.6  3857.5
497.5  3881.25
497.4  3751.25
497.3  3783.75
497.2  3775
497.1  3885
497  3826.25
496.9  3870
496.8  3881.25
496.7  3987.5
496.6  3942.5
496.5  4058.75
496.4  4147.5
496.3  4026.25
496.2  4078.75
496.1  4191.25
496  4078.75
495.9  4097.5
495.8  4122.5
495.7  4276.25
495.6  4142.5
495.5  4058.75
495.4  4072.5
495.3  4091.25
495.2  4025
495.1  4020
495  3975
494.9  4022.5
494.8  3836.25
494.7  3723.75
494.6  3895
494.5  3711.25
494.4  3615
494.3  3601.25
494.2  3647.5
494.1  3683.75
494  3562.5
493.9  3620
493.8  3578.75
493.7  3531.25
493.6  3621.25
493.5  3511.25
493.4  3532.5
493.3  3498.75
493.2  3466.25
493.1  3488.75
493  3475
492.9  3517.5
492.8  3618.75
492.7  3386.25
492.6  3427.5
492.5  3573.75
492.4  3520
492.3  3582.5
492.2  3498.75
492.1  3362.5
492  3438.75
491.9  3568.75
491.8  3423.75
491.7  3585
491.6  3435
491.5  3557.5
491.4  3470
491.3  3472.5
491.2  3537.5
491.1  3548.75
491  3456.25
490.9  3510
490.8  3468.75
490.7  3451.25
490.6  3395
490.5  3570
490.4  3558.75
490.3  3473.75
490.2  3640
490.1  3482.5
490  3618.75
489.9  3540
