# Created by:        SpecsLab Prodigy, Version 4.60.2-r85849 
#
# XY-Serializer Export Settings:
#   Comment Prefix:           #
#   Output meta data:         yes
#   Energy Axis:              Binding Energy
#   Count Rate:               Counts per Second
#   Separate Scan Data:       no
#   Separate Channel Data:    no
#   External Channel Data:    yes
#   Transmission Function:    no
#   ErrorBar:                 no
#   Operation Results:        yes
#   Time Zone Format:         UTC
#
# Group:             Spectrum Group
#
# Region:            overview
# Acquisition Date:  08/23/22 17:07:13 UTC
# Analysis Method:   XPS
# Analyzer:          Phoibos 100 R6
# Analyzer Lens:     MediumArea:1.5kV
# Analyzer Slit:     1:0.2x20\B:open
# Scan Mode:         FixedAnalyzerTransmission
# Curves/Scan:       1
# Values/Curve:      1205
# Dwell Time:        0.2
# Excitation Energy: 1486.61
# Binding Energy:    1200
# Pass Energy:       50
# Bias Voltage:      90
# Detector Voltage:  2600
# Eff. Workfunction: 4.309
# Source:            X-Ray Dummy
# Comment:           
#
# Cycle: 0
# Number of Scans: 1
#
# Cycle: 0, Curve: 0
# Acquisition Date: 08/23/22 17:07:13 UTC
#
# ColumnLabels: energy counts/s
#
1200  10310
1199  10120
1198  10220
1197  10630
1196  9460
1195  10215
1194  10415
1193  10390
1192  10195
1191  10440
1190  10185
1189  9980
1188  10090
1187  9735
1186  10180
1185  9830
1184  9540
1183  9450
1182  9585
1181  9520
1180  9285
1179  9200
1178  9320
1177  9405
1176  9565
1175  9110
1174  9250
1173  9420
1172  9050
1171  9260
1170  9190
1169  9005
1168  9185
1167  8975
1166  9220
1165  9255
1164  9230
1163  8860
1162  8855
1161  9310
1160  9665
1159  9080
1158  9155
1157  9365
1156  8970
1155  8615
1154  8955
1153  8990
1152  8690
1151  8840
1150  8860
1149  8690
1148  8755
1147  8845
1146  8975
1145  8795
1144  8435
1143  8345
1142  8730
1141  8130
1140  8085
1139  8115
1138  8155
1137  8065
1136  7820
1135  7865
1134  7880
1133  7270
1132  7565
1131  7490
1130  7315
1129  7305
1128  7485
1127  7405
1126  7225
1125  7515
1124  7335
1123  7240
1122  7235
1121  7140
1120  7525
1119  7060
1118  7510
1117  7215
1116  7140
1115  7115
1114  7200
1113  6980
1112  7625
1111  6910
1110  7240
1109  7075
1108  7140
1107  7050
1106  7110
1105  7100
1104  7010
1103  7025
1102  6985
1101  7110
1100  6840
1099  7210
1098  7020
1097  7075
1096  7080
1095  7170
1094  7145
1093  6875
1092  7240
1091  7310
1090  7920
1089  8980
1088  9235
1087  9975
1086  9340
1085  9375
1084  8375
1083  7475
1082  7835
1081  8120
1080  8015
1079  7835
1078  7020
1077  6410
1076  5990
1075  5805
1074  5615
1073  5145
1072  5450
1071  5230
1070  5555
1069  5160
1068  5175
1067  5615
1066  5450
1065  5500
1064  5495
1063  5500
1062  5150
1061  5295
1060  5290
1059  5330
1058  4960
1057  4945
1056  5015
1055  4990
1054  4750
1053  5005
1052  5220
1051  4795
1050  4730
1049  4815
1048  5070
1047  5000
1046  4860
1045  4935
1044  4690
1043  4725
1042  4665
1041  4985
1040  4535
1039  4580
1038  4740
1037  4540
1036  4715
1035  4935
1034  4590
1033  4795
1032  4590
1031  4895
1030  4695
1029  4170
1028  4745
1027  4620
1026  5200
1025  4700
1024  4400
1023  4925
1022  4485
1021  4595
1020  4555
1019  4700
1018  4645
1017  4670
1016  4905
1015  4365
1014  4630
1013  5035
1012  4705
1011  4875
1010  4590
1009  4705
1008  4650
1007  4900
1006  4905
1005  4595
1004  4655
1003  4430
1002  4675
1001  4840
1000  4645
999  4875
998  5065
997  4975
996  4655
995  5145
994  5020
993  4980
992  4960
991  5025
990  4705
989  4920
988  4625
987  4430
986  4665
985  4825
984  4635
983  4620
982  4620
981  4800
980  4745
979  4670
978  5095
977  5290
976  5490
975  5465
974  5610
973  5510
972  5310
971  5040
970  5080
969  4435
968  4705
967  4290
966  4315
965  4215
964  4260
963  4510
962  4050
961  4035
960  3955
959  4185
958  3840
957  4085
956  4380
955  4150
954  4025
953  4300
952  3895
951  4275
950  4175
949  4310
948  4235
947  4320
946  3910
945  4045
944  4180
943  4220
942  3965
941  4180
940  4075
939  3945
938  4225
937  4170
936  4200
935  4120
934  4355
933  4135
932  4360
931  4180
930  4155
929  4070
928  4120
927  4280
926  4395
925  4365
924  4095
923  4265
922  4285
921  4320
920  3950
919  4260
918  4170
917  4335
916  3955
915  4480
914  3820
913  3965
912  4390
911  4365
910  4270
909  4470
908  4170
907  4035
906  4390
905  4210
904  4055
903  3930
902  4260
901  4370
900  3920
899  4045
898  4010
897  3975
896  4370
895  4170
894  4370
893  4260
892  4220
891  4195
890  4415
889  4190
888  4200
887  4305
886  4280
885  4220
884  4320
883  4095
882  4275
881  4345
880  4200
879  4660
878  4265
877  4180
876  4410
875  4365
874  4365
873  4305
872  4035
871  4265
870  4170
869  4295
868  4040
867  4325
866  4350
865  4680
864  3990
863  4465
862  4335
861  4325
860  4340
859  4225
858  4045
857  4410
856  3960
855  4495
854  4175
853  4280
852  4520
851  4395
850  4435
849  4190
848  4665
847  4445
846  4300
845  4585
844  4220
843  4270
842  4340
841  4160
840  4185
839  4370
838  4305
837  4265
836  4590
835  4475
834  4590
833  4615
832  4425
831  4720
830  4690
829  4445
828  4955
827  4585
826  4705
825  4970
824  4345
823  4295
822  4505
821  4295
820  4500
819  4510
818  4430
817  4305
816  4225
815  4310
814  4400
813  4675
812  4480
811  4475
810  4270
809  4530
808  4245
807  4250
806  4100
805  4130
804  4535
803  4270
802  4385
801  4255
800  4130
799  4580
798  4365
797  4580
796  4270
795  4405
794  4510
793  4415
792  4295
791  4270
790  4335
789  4425
788  4495
787  4375
786  4385
785  4275
784  4435
783  4325
782  4395
781  4410
780  4680
779  4710
778  4365
777  4355
776  4725
775  4105
774  4510
773  4505
772  4370
771  4520
770  4360
769  4395
768  4610
767  4565
766  4680
765  4520
764  4760
763  4675
762  4495
761  4385
760  4550
759  4715
758  4720
757  4750
756  4790
755  4500
754  4610
753  4840
752  4570
751  4665
750  4660
749  4615
748  4390
747  4430
746  4150
745  4550
744  4525
743  4310
742  4575
741  4770
740  4700
739  4450
738  4610
737  4595
736  4770
735  4675
734  4620
733  4830
732  4350
731  4620
730  4595
729  4765
728  4790
727  4620
726  5045
725  4635
724  4560
723  4715
722  4800
721  5030
720  4865
719  4790
718  5135
717  4740
716  5280
715  4820
714  4955
713  4955
712  4610
711  4650
710  4830
709  4630
708  4925
707  5535
706  5400
705  6215
704  6260
703  6040
702  5710
701  5205
700  4815
699  4695
698  4615
697  4760
696  4470
695  4615
694  5000
693  4625
692  4775
691  4940
690  4750
689  4785
688  4535
687  4680
686  4675
685  4845
684  4600
683  4715
682  4785
681  4430
680  4640
679  4940
678  4510
677  4655
676  4600
675  4420
674  4215
673  4670
672  4460
671  4890
670  4810
669  5435
668  6550
667  7130
666  8130
665  7345
664  6115
663  5500
662  4675
661  4655
660  4265
659  4375
658  4395
657  4520
656  4280
655  4595
654  4425
653  4100
652  4035
651  3960
650  3780
649  3865
648  3760
647  4165
646  4245
645  3825
644  3860
643  3805
642  4135
641  3875
640  3690
639  3770
638  3905
637  3970
636  4130
635  4015
634  3825
633  3910
632  3835
631  4010
630  3945
629  4040
628  3800
627  3930
626  3805
625  4025
624  4085
623  3980
622  3985
621  3740
620  4065
619  3805
618  4220
617  3985
616  4170
615  3960
614  3945
613  3845
612  4220
611  3935
610  3720
609  4150
608  3955
607  4120
606  4105
605  4145
604  4270
603  4245
602  4080
601  4305
600  4020
599  4135
598  4390
597  4675
596  4190
595  4185
594  4130
593  3890
592  3985
591  3920
590  4320
589  4120
588  4260
587  4145
586  4075
585  4295
584  4230
583  4175
582  4155
581  4430
580  4260
579  4280
578  4465
577  4235
576  4150
575  4235
574  4500
573  4365
572  3935
571  4280
570  4265
569  4215
568  4280
567  4255
566  4280
565  4360
564  4590
563  4215
562  4315
561  4430
560  4365
559  4300
558  4365
557  4515
556  4530
555  4475
554  4645
553  4510
552  4695
551  4435
550  4615
549  4505
548  4515
547  4770
546  4420
545  4645
544  4720
543  4355
542  4255
541  4515
540  4615
539  4365
538  4450
537  4225
536  4280
535  4200
534  4500
533  4985
532  6435
531  7545
530  8030
529  6225
528  4685
527  4065
526  4090
525  4215
524  4140
523  4225
522  4330
521  4540
520  4205
519  4280
518  4130
517  4165
516  4320
515  4200
514  4340
513  4380
512  4145
511  4350
510  4360
509  4365
508  4180
507  4140
506  4210
505  4090
504  4095
503  4030
502  4290
501  4170
500  4255
499  4155
498  4320
497  4290
496  4865
495  4940
494  4220
493  4460
492  4020
491  4065
490  4110
489  4475
488  4650
487  5385
486  4825
485  4150
484  4110
483  4275
482  4120
481  4010
480  4270
479  4220
478  4405
477  4215
476  4300
475  4025
474  4595
473  4880
472  4550
471  4765
470  4280
469  4600
468  4380
467  4250
466  4320
465  4300
464  4080
463  4450
462  4330
461  3800
460  3690
459  3875
458  3635
457  3650
456  3910
455  4135
454  6490
453  12010
452  14255
451  8540
450  4000
449  3140
448  3230
447  5370
446  10995
445  18540
444  15470
443  7575
442  3630
441  2975
440  2420
439  2100
438  1925
437  1690
436  2370
435  2910
434  2700
433  2335
432  1880
431  1650
430  1535
429  1410
428  1340
427  1575
426  1565
425  1520
424  1470
423  1380
422  1510
421  1335
420  1630
419  1235
418  1415
417  1460
416  1305
415  1430
414  1300
413  1400
412  1355
411  1250
410  1510
409  1410
408  1460
407  1400
406  1375
405  1395
404  1280
403  1300
402  1300
401  1330
400  1425
399  1425
398  1440
397  1330
396  1285
395  1385
394  1380
393  1325
392  1455
391  1545
390  1400
389  1345
388  1295
387  1435
386  1550
385  1475
384  1430
383  1540
382  1460
381  1315
380  1535
379  1580
378  1415
377  1490
376  1405
375  1535
374  1555
373  1620
372  1325
371  1350
370  1380
369  1245
368  1200
367  1185
366  1290
365  1260
364  1350
363  1285
362  1235
361  1115
360  1150
359  1275
358  1305
357  1330
356  1365
355  1250
354  1145
353  1025
352  1265
351  1405
350  1215
349  1275
348  1250
347  1295
346  1405
345  1325
344  1265
343  1280
342  1245
341  1160
340  1285
339  1330
338  1320
337  1285
336  1365
335  1225
334  1375
333  1255
332  1320
331  1280
330  1250
329  1115
328  1325
327  1325
326  1265
325  1370
324  1325
323  1265
322  1285
321  1385
320  1295
319  1370
318  1385
317  1360
316  1380
315  1340
314  1305
313  1410
312  1450
311  1195
310  1175
309  1370
308  1325
307  1270
306  1250
305  1360
304  1400
303  1275
302  1220
301  1405
300  1320
299  1185
298  1390
297  1325
296  1410
295  1280
294  1495
293  1315
292  1280
291  1450
290  1340
289  1260
288  1390
287  1630
286  1555
285  1480
284  1425
283  1355
282  1285
281  1410
280  1275
279  1460
278  1410
277  1245
276  1400
275  1395
274  1290
273  1345
272  1395
271  1370
270  1340
269  1385
268  1285
267  1450
266  1340
265  1450
264  1450
263  1235
262  1220
261  1315
260  1200
259  1500
258  1320
257  1355
256  1295
255  1395
254  1355
253  1340
252  1405
251  1425
250  1400
249  1395
248  1250
247  1350
246  1540
245  1580
244  1375
243  1450
242  1440
241  1400
240  1315
239  1350
238  1195
237  1350
236  1550
235  1380
234  1370
233  1360
232  1440
231  1330
230  1345
229  1410
228  1510
227  1410
226  1240
225  1425
224  1365
223  1325
222  1385
221  1290
220  1350
219  1330
218  1345
217  1415
216  1395
215  1390
214  1355
213  1370
212  1485
211  1380
210  1350
209  1485
208  1385
207  1365
206  1535
205  1435
204  1375
203  1415
202  1345
201  1460
200  1435
199  1530
198  1460
197  1315
196  1325
195  1405
194  1595
193  1415
192  1600
191  1435
190  1425
189  1540
188  1390
187  1445
186  1245
185  1385
184  1350
183  1375
182  1445
181  1450
180  1470
179  1470
178  1340
177  1410
176  1570
175  1420
174  1510
173  1485
172  1610
171  1480
170  1290
169  1415
168  1365
167  1335
166  1425
165  1525
164  1425
163  1320
162  1620
161  1375
160  1545
159  1705
158  1660
157  1495
156  1410
155  1485
154  1490
153  1445
152  1530
151  1625
150  1520
149  1455
148  1435
147  1625
146  1410
145  1450
144  1425
143  1540
142  1550
141  1460
140  1535
139  1450
138  1575
137  1510
136  1475
135  1555
134  1495
133  1600
132  1470
131  1515
130  1530
129  1455
128  1615
127  1585
126  1905
125  1795
124  1670
123  1495
122  1750
121  1675
120  1440
119  1625
118  1420
117  1460
116  1405
115  1600
114  1520
113  1370
112  1485
111  1550
110  1535
109  1545
108  1365
107  1385
106  1415
105  1480
104  1430
103  1665
102  1470
101  1605
100  1475
99  1555
98  1655
97  1595
96  1440
95  1545
94  1500
93  1595
92  1525
91  1590
90  1560
89  1575
88  1715
87  1605
86  1660
85  1685
84  1745
83  1640
82  1690
81  1780
80  1790
79  1945
78  1705
77  1660
76  1660
75  1765
74  1505
73  1500
72  1555
71  1400
70  1375
69  1180
68  1165
67  1395
66  1240
65  1250
64  1265
63  1170
62  1155
61  1015
60  1215
59  1160
58  1065
57  1165
56  1225
55  1150
54  1210
53  1160
52  1255
51  1180
50  1105
49  1095
48  1130
47  1115
46  1045
45  1105
44  1145
43  1095
42  1215
41  1215
40  1200
39  990
38  1095
37  1145
36  1200
35  1030
34  960
33  1120
32  1125
31  1120
30  1080
29  1160
28  1325
27  1305
26  1295
25  1250
24  1085
23  1230
22  1195
21  1435
20  2250
19  3710
18  4190
17  2645
16  1425
15  885
14  680
13  730
12  840
11  915
10  905
9  1030
8  1190
7  1010
6  985
5  990
4  760
3  825
2  710
1  760
-2.2737368e-013  500
-1  720
-2  820
-3  690
-4  570

# Region:            C1s
# Acquisition Date:  08/24/22 00:59:48 UTC
# Analysis Method:   XPS
# Analyzer:          Phoibos 100 R6
# Analyzer Lens:     LargeArea:1.5kV
# Analyzer Slit:     1:0.2x20\B:open
# Scan Mode:         FixedAnalyzerTransmission
# Curves/Scan:       1
# Values/Curve:      151
# Dwell Time:        0.8
# Excitation Energy: 1486.61
# Binding Energy:    295
# Pass Energy:       30
# Bias Voltage:      90
# Detector Voltage:  2600
# Eff. Workfunction: 4.309
# Source:            X-Ray Dummy
# Comment:           
#
# Cycle: 0
# Number of Scans: 50
#
# Cycle: 0, Curve: 0
# Acquisition Date: 08/24/22 00:59:48 UTC
#
# ColumnLabels: energy counts/s
#
295  969.675
294.9  975.65
294.8  975.575
294.7  967
294.6  966.625
294.5  976.625
294.4  966.9
294.3  965
294.2  975.35
294.1  970.45
294  975.925
293.9  983.3
293.8  972.35
293.7  963.325
293.6  967.375
293.5  980.375
293.4  961.25
293.3  972.975
293.2  984.875
293.1  963.175
293  966.175
292.9  981.95
292.8  978.975
292.7  966
292.6  964.575
292.5  971.575
292.4  971.575
292.3  972.875
292.2  962.05
292.1  972.45
292  972.325
291.9  975.775
291.8  971.9
291.7  965.625
291.6  978.45
291.5  968.525
291.4  981.675
291.3  965.175
291.2  976.15
291.1  970.95
291  970.725
290.9  974.65
290.8  973.825
290.7  969.05
290.6  973.15
290.5  988.925
290.4  973.7
290.3  978.575
290.2  975.425
290.1  979.7
290  977.975
289.9  981.6
289.8  982.075
289.7  983.475
289.6  992.175
289.5  989.675
289.4  993.375
289.3  993.9
289.2  996.275
289.1  994.375
289  1005.05
288.9  1003.55
288.8  1007.975
288.7  1012.425
288.6  1018.325
288.5  1015
288.4  1024.4
288.3  1030.4
288.2  1036
288.1  1031.55
288  1042.425
287.9  1047.475
287.8  1054.3
287.7  1058.4
287.6  1065.375
287.5  1083.4
287.4  1085.55
287.3  1100.8
287.2  1079.275
287.1  1102.5
287  1098.8
286.9  1117.05
286.8  1114.05
286.7  1118.675
286.6  1116.5
286.5  1118.075
286.4  1122.85
286.3  1114.125
286.2  1110.45
286.1  1111.925
286  1123.9
285.9  1105.7
285.8  1103.25
285.7  1104.45
285.6  1098.5
285.5  1098.875
285.4  1091.7
285.3  1079.5
285.2  1081.325
285.1  1069.275
285  1075.625
284.9  1065.175
284.8  1062.15
284.7  1054.725
284.6  1053.15
284.5  1033.825
284.4  1038.05
284.3  1025.65
284.2  1020.625
284.1  1006.65
284  1014.475
283.9  1008.25
283.8  995.875
283.7  986.925
283.6  987.875
283.5  977.875
283.4  978.65
283.3  989.225
283.2  983.575
283.1  973.875
283  970.35
282.9  968.775
282.8  972.8
282.7  953.625
282.6  968.025
282.5  967.325
282.4  962.025
282.3  968.525
282.2  963.1
282.1  971.4
282  964.7
281.9  971.45
281.8  965.65
281.7  967.975
281.6  966.6
281.5  966.6
281.4  959.475
281.3  970.55
281.2  961.975
281.1  967.175
281  957.45
280.9  966.85
280.8  964.95
280.7  962.1
280.6  963.375
280.5  963.525
280.4  966.4
280.3  964.05
280.2  968.45
280.1  959.125
280  967.375

# Region:            N1s
# Acquisition Date:  08/24/22 02:45:54 UTC
# Analysis Method:   XPS
# Analyzer:          Phoibos 100 R6
# Analyzer Lens:     LargeArea:1.5kV
# Analyzer Slit:     1:0.2x20\B:open
# Scan Mode:         FixedAnalyzerTransmission
# Curves/Scan:       1
# Values/Curve:      121
# Dwell Time:        0.8
# Excitation Energy: 1486.61
# Binding Energy:    409
# Pass Energy:       30
# Bias Voltage:      90
# Detector Voltage:  2600
# Eff. Workfunction: 4.309
# Source:            X-Ray Dummy
# Comment:           
#
# Cycle: 0
# Number of Scans: 90
#
# Cycle: 0, Curve: 0
# Acquisition Date: 08/24/22 02:45:54 UTC
#
# ColumnLabels: energy counts/s
#
409  1075.9722
408.9  1079.2083
408.8  1072.1667
408.7  1085.7778
408.6  1087.1528
408.5  1084.0139
408.4  1086.1806
408.3  1086.6667
408.2  1079.25
408.1  1083.1944
408  1087.9722
407.9  1087.1111
407.8  1085.5833
407.7  1084.7083
407.6  1079.5694
407.5  1082.3194
407.4  1086.375
407.3  1088.0139
407.2  1089.0556
407.1  1087.1528
407  1082.75
406.9  1092.8472
406.8  1089.2361
406.7  1080.3194
406.6  1082.7361
406.5  1081.9028
406.4  1078.9861
406.3  1073.2778
406.2  1074.2917
406.1  1074.4722
406  1076.5139
405.9  1075.5417
405.8  1065.1806
405.7  1075.9583
405.6  1077.0556
405.5  1081.3889
405.4  1075.6667
405.3  1082.0139
405.2  1072.4306
405.1  1079.0833
405  1071.8333
404.9  1075.25
404.8  1076.0278
404.7  1076.9722
404.6  1072.3056
404.5  1080.6667
404.4  1072.2778
404.3  1076.8056
404.2  1080.1944
404.1  1073.2083
404  1076.8333
403.9  1072.8472
403.8  1080.9722
403.7  1086.2361
403.6  1080.3056
403.5  1077.1111
403.4  1081.7778
403.3  1077.1111
403.2  1082.5417
403.1  1083.1944
403  1078.2083
402.9  1087.4167
402.8  1084.7361
402.7  1086.3056
402.6  1088.6528
402.5  1089.7083
402.4  1086.5833
402.3  1089.0972
402.2  1095.3611
402.1  1094.4167
402  1094.2778
401.9  1098.6667
401.8  1091.6806
401.7  1095.3194
401.6  1092.4861
401.5  1095.5139
401.4  1098.0139
401.3  1099.7083
401.2  1088.125
401.1  1096.9861
401  1098.4306
400.9  1098.1944
400.8  1102.9028
400.7  1094.75
400.6  1090.1806
400.5  1094.9444
400.4  1097.7917
400.3  1093.5556
400.2  1094.3472
400.1  1099.7222
400  1091.2917
399.9  1084.2639
399.8  1087.7083
399.7  1091.1528
399.6  1094.3333
399.5  1081.8611
399.4  1088.4722
399.3  1082.9583
399.2  1088.8611
399.1  1078.9167
399  1081.4583
398.9  1084.6528
398.8  1080.4306
398.7  1073.1389
398.6  1079.0833
398.5  1076.2917
398.4  1067.7222
398.3  1076.25
398.2  1062.9028
398.1  1070.1944
398  1067.4167
397.9  1068.5833
397.8  1063.8056
397.7  1072.0278
397.6  1062.3889
397.5  1068.0694
397.4  1068.5972
397.3  1065.5556
397.2  1066.9028
397.1  1062.1528
397  1064.9028

# Region:            O1s
# Acquisition Date:  08/23/22 23:49:14 UTC
# Analysis Method:   XPS
# Analyzer:          Phoibos 100 R6
# Analyzer Lens:     LargeArea:1.5kV
# Analyzer Slit:     1:0.2x20\B:open
# Scan Mode:         FixedAnalyzerTransmission
# Curves/Scan:       1
# Values/Curve:      141
# Dwell Time:        0.8
# Excitation Energy: 1486.61
# Binding Energy:    541
# Pass Energy:       30
# Bias Voltage:      90
# Detector Voltage:  2600
# Eff. Workfunction: 4.309
# Source:            X-Ray Dummy
# Comment:           
#
# Cycle: 0
# Number of Scans: 40
#
# Cycle: 0, Curve: 0
# Acquisition Date: 08/23/22 23:49:14 UTC
#
# ColumnLabels: energy counts/s
#
541  3778.625
540.9  3742.75
540.8  3763.75
540.7  3740.125
540.6  3754.4688
540.5  3754.4375
540.4  3744.6875
540.3  3731.4063
540.2  3760.1875
540.1  3756.4375
540  3717.8125
539.9  3740.5313
539.8  3743.5625
539.7  3725.4375
539.6  3743.0938
539.5  3746.6563
539.4  3738.4375
539.3  3728.875
539.2  3729.5938
539.1  3712.6875
539  3731.5313
538.9  3718.5938
538.8  3726.1563
538.7  3719.875
538.6  3704.9688
538.5  3713.9063
538.4  3709.4063
