# Created by:        SpecsLab Prodigy, Version 4.60.2-r85849 
#
# XY-Serializer Export Settings:
#   Comment Prefix:           #
#   Output meta data:         yes
#   Energy Axis:              Binding Energy
#   Count Rate:               Counts per Second
#   Separate Scan Data:       no
#   Separate Channel Data:    no
#   External Channel Data:    yes
#   Transmission Function:    no
#   ErrorBar:                 no
#   Operation Results:        yes
#   Time Zone Format:         UTC
#
# Group:             Spectrum Group
#
# Region:            C1s
# Acquisition Date:  08/26/22 13:58:22 UTC
# Analysis Method:   XPS
# Analyzer:          Phoibos 100 R6
# Analyzer Lens:     LargeArea:1.5kV
# Analyzer Slit:     1:0.2x20\B:open
# Scan Mode:         FixedAnalyzerTransmission
# Curves/Scan:       1
# Values/Curve:      151
# Dwell Time:        0.8
# Excitation Energy: 1486.61
# Binding Energy:    295
# Pass Energy:       30
# Bias Voltage:      90
# Detector Voltage:  2600
# Eff. Workfunction: 4.309
# Source:            X-Ray Dummy
# Comment:           
#
# Cycle: 0
# Number of Scans: 29
#
# Cycle: 0, Curve: 0
# Acquisition Date: 08/26/22 13:58:22 UTC
#
# ColumnLabels: energy counts/s
#
295  1066.8103
294.9  1080.6466
294.8  1071.1638
294.7  1074.3103
294.6  1059.4397
294.5  1084.0517
294.4  1068.9224
294.3  1078.1897
294.2  1070.0862
294.1  1075.7328
294  1084.8707
293.9  1070.5603
293.8  1059.3103
293.7  1078.8793
293.6  1075.8621
293.5  1069.6983
293.4  1069.8276
293.3  1081.0776
293.2  1056.4224
293.1  1070.1724
293  1068.8793
292.9  1067.4569
292.8  1069.2241
292.7  1067.7586
292.6  1059.9138
292.5  1067.8448
292.4  1061.2069
292.3  1068.1897
292.2  1070.9914
292.1  1062.5
292  1090.6897
291.9  1072.2414
291.8  1085.431
291.7  1067.8879
291.6  1065.9483
291.5  1077.4138
291.4  1079.6552
291.3  1078.3621
291.2  1077.3707
291.1  1070.7328
291  1077.9741
290.9  1084.9138
290.8  1071.8966
290.7  1076.25
290.6  1086.6379
290.5  1083.6207
290.4  1067.6724
290.3  1078.4483
290.2  1074.0517
290.1  1080.8621
290  1091.7672
289.9  1093.4483
289.8  1096.3362
289.7  1091.4655
289.6  1103.1897
289.5  1092.5862
289.4  1103.5345
289.3  1099.3103
289.2  1108.2328
289.1  1114.5259
289  1113.5776
288.9  1130.5603
288.8  1118.7931
288.7  1125.3017
288.6  1127.6293
288.5  1136.1207
288.4  1128.9655
288.3  1131.1638
288.2  1144.2672
288.1  1144.4828
288  1153.6207
287.9  1162.3276
287.8  1172.4569
287.7  1165.1724
287.6  1177.2414
287.5  1179.6983
287.4  1180.1724
287.3  1179.9569
287.2  1194.8707
287.1  1196.7241
287  1186.1638
286.9  1184.8707
286.8  1173.8362
286.7  1188.4483
286.6  1194.6983
286.5  1192.7586
286.4  1181.9397
286.3  1190
286.2  1182.3707
286.1  1184.6552
286  1194.9138
285.9  1177.0259
285.8  1169.8707
285.7  1167.5431
285.6  1150.5172
285.5  1149.2672
285.4  1155.7328
285.3  1162.1121
285.2  1143.4052
285.1  1137.8448
285  1124.6552
284.9  1125.1293
284.8  1116.25
284.7  1123.9224
284.6  1111.5086
284.5  1111.4224
284.4  1094.9138
284.3  1085.0431
284.2  1087.0259
284.1  1070.5603
284  1075.1724
283.9  1084.4828
283.8  1068.3621
283.7  1063.2759
283.6  1072.7155
283.5  1060.6034
283.4  1079.3103
283.3  1064.8707
283.2  1074.3534
283.1  1062.8879
283  1055.1293
282.9  1063.3621
282.8  1051.9397
282.7  1050.4741
282.6  1057.2845
282.5  1057.5
282.4  1054.3534
282.3  1057.5862
282.2  1055.9052
282.1  1057.5
282  1065.1724
281.9  1063.9655
281.8  1051.4655
281.7  1047.4569
281.6  1061.1207
281.5  1055.9483
281.4  1045
281.3  1066.2069
281.2  1055.6466
281.1  1055.9052
281  1045.431
280.9  1055.6466
280.8  1040.6466
280.7  1046.3362
280.6  1052.7155
280.5  1046.8534
280.4  1052.3707
280.3  1048.8793
280.2  1049.7414
280.1  1050.819
280  1062.0259

# Region:            overview
# Acquisition Date:  08/26/22 08:11:53 UTC
# Analysis Method:   XPS
# Analyzer:          Phoibos 100 R6
# Analyzer Lens:     MediumArea:1.5kV
# Analyzer Slit:     1:0.2x20\B:open
# Scan Mode:         FixedAnalyzerTransmission
# Curves/Scan:       1
# Values/Curve:      1205
# Dwell Time:        0.2
# Excitation Energy: 1486.61
# Binding Energy:    1200
# Pass Energy:       50
# Bias Voltage:      90
# Detector Voltage:  2600
# Eff. Workfunction: 4.309
# Source:            X-Ray Dummy
# Comment:           
#
# Cycle: 0
# Number of Scans: 1
#
# Cycle: 0, Curve: 0
# Acquisition Date: 08/26/22 08:11:53 UTC
#
# ColumnLabels: energy counts/s
#
1200  9115
1199  8885
1198  9090
1197  8630
1196  8740
1195  8660
1194  8990
1193  9055
1192  9010
1191  8875
1190  8770
1189  8655
1188  8750
1187  8650
1186  8235
1185  9235
1184  8675
1183  8550
1182  8150
1181  8235
1180  8070
1179  8320
1178  8650
1177  8340
1176  8165
1175  8395
1174  8515
1173  8190
1172  8135
1171  8560
1170  8315
1169  8095
1168  8255
1167  8005
1166  7935
1165  8110
1164  8060
1163  8230
1162  7880
1161  8195
1160  7840
1159  8400
1158  7835
1157  8100
1156  7825
1155  8035
1154  8025
1153  7750
1152  7955
1151  7475
1150  7905
1149  7950
1148  7755
1147  8080
1146  7870
1145  7865
1144  7610
1143  7690
1142  7490
1141  7815
1140  7675
1139  7690
1138  7955
1137  8030
1136  8105
1135  7445
1134  7205
1133  7260
1132  7260
1131  7325
1130  7535
1129  7190
1128  7250
1127  7240
1126  7440
1125  7175
1124  7165
1123  7040
1122  7155
1121  7205
1120  7020
1119  7145
1118  6900
1117  7205
1116  7030
1115  7150
1114  7170
1113  7000
1112  7055
1111  7020
1110  7340
1109  7105
1108  7020
1107  7220
1106  7115
1105  6965
1104  6835
1103  6750
1102  6580
1101  6630
1100  6415
1099  6815
1098  6905
1097  7055
1096  6600
1095  6845
1094  6635
1093  6645
1092  6870
1091  6825
1090  6945
1089  7100
1088  7235
1087  7350
1086  7025
1085  7105
1084  6815
1083  6575
1082  6835
1081  6990
1080  6585
1079  6825
1078  6345
1077  6235
1076  6425
1075  6325
1074  6005
1073  6210
1072  6175
1071  6095
1070  6400
1069  6080
1068  6215
1067  6360
1066  6780
1065  7080
1064  6905
1063  7560
1062  7495
1061  6400
1060  6330
1059  6090
1058  6235
1057  5820
1056  5840
1055  5725
1054  5540
1053  5950
1052  5725
1051  5470
1050  5360
1049  5520
1048  5435
1047  5010
1046  5190
1045  5280
1044  5290
1043  5195
1042  5445
1041  4950
1040  5510
1039  5170
1038  5150
1037  5585
1036  5325
1035  5520
1034  5340
1033  5260
1032  5535
1031  5430
1030  5435
1029  5435
1028  5670
1027  5405
1026  5640
1025  5455
1024  5490
1023  5250
1022  5155
1021  5480
1020  5325
1019  5765
1018  5355
1017  5510
1016  5625
1015  5545
1014  5520
1013  5635
1012  5275
1011  5325
1010  5595
1009  5430
1008  5480
1007  5355
1006  5605
1005  5215
1004  5220
1003  5465
1002  5790
1001  5145
1000  5240
999  5400
998  5705
997  5465
996  5650
995  5325
994  5725
993  5470
992  5640
991  5580
990  5370
989  5170
988  5300
987  4955
986  5270
985  5170
984  4955
983  5050
982  5175
981  5160
980  4920
979  5250
978  4925
977  5040
976  5145
975  4865
974  4895
973  5155
972  4580
971  4955
970  4670
969  4630
968  4525
967  4770
966  4660
965  4745
964  4280
963  4860
962  4845
961  4795
960  4630
959  4555
958  4645
957  4610
956  4580
955  4540
954  4590
953  4665
952  4650
951  4425
950  4540
949  4665
948  4225
947  4795
946  4745
945  4525
944  4495
943  4520
942  4855
941  4915
940  4765
939  4795
938  4890
937  4880
936  5005
935  5065
934  4960
933  4965
932  5185
931  5070
930  4780
929  5135
928  5320
927  5415
926  5020
925  5210
924  5095
923  5220
922  5365
921  4990
920  5155
919  5290
918  4850
917  5490
916  5330
915  5105
914  5700
913  5550
912  5510
911  5390
910  5570
909  6165
908  6000
907  6390
906  6500
905  6710
904  6530
903  6750
902  6600
901  6515
900  6255
899  5900
898  6095
897  5655
896  5790
895  5530
894  5260
893  5535
892  5875
891  5585
890  5695
889  5600
888  5220
887  5145
886  4880
885  4865
884  4920
883  4505
882  4770
881  4425
880  4405
879  4250
878  4300
877  4050
876  4510
875  4170
874  4220
873  4450
872  4660
871  4560
870  4635
869  4475
868  4285
867  4255
866  4205
865  4390
864  4365
863  4295
862  4590
861  4135
860  4470
859  4390
858  4520
857  4495
856  4200
855  4425
854  4820
853  4665
852  4695
851  4420
850  4655
849  4495
848  4490
847  4455
846  4855
845  4735
844  4625
843  4615
842  4625
841  4980
840  4755
839  4635
838  4750
837  4950
836  4690
835  4850
834  5025
833  4690
832  4960
831  4990
830  4785
829  4895
828  5320
827  4950
826  4875
825  5130
824  4955
823  5505
822  5545
821  5480
820  5340
819  5340
818  5535
817  5045
816  5030
815  4920
814  5240
813  4965
812  5035
811  5290
810  5105
809  5640
808  5530
807  5595
806  5565
805  5300
804  5390
803  5110
802  5110
801  5085
800  5275
799  5950
798  8010
797  11375
796  10030
795  6950
794  5845
793  5080
792  5270
791  5205
790  4925
789  5100
788  5000
787  5205
786  5005
785  4915
784  5345
783  7520
782  12100
781  13265
780  8800
779  5625
778  4790
777  4730
776  4310
775  4415
774  4450
773  4620
772  5170
771  4895
770  4890
769  4845
768  4210
767  4275
766  3850
765  4035
764  4050
763  4015
762  4090
761  4220
760  4210
759  4275
758  4135
757  4165
756  4200
755  4215
754  4120
753  4095
752  4355
751  4135
750  4445
749  4065
748  4010
747  4170
746  4310
745  3895
744  4005
743  4085
742  4260
741  4145
740  4185
739  4175
738  4315
737  4475
736  4065
735  4150
734  4170
733  4240
732  4445
731  4170
730  4355
729  4140
728  4385
727  4255
726  4375
725  4320
724  4360
723  4190
722  4145
721  4350
720  4400
719  4370
718  4335
717  4380
716  4310
715  4275
714  4250
713  4130
712  4430
711  4055
710  4705
709  4410
708  4300
707  4425
706  4745
705  4800
704  5105
703  4540
702  4090
701  4185
700  3970
699  4040
698  4375
697  4370
696  4240
695  4245
694  3935
693  4155
692  4135
691  4205
690  4260
689  4145
688  4185
687  3930
686  4410
685  4270
684  4110
683  4025
682  3915
681  3950
680  4150
679  4000
678  4055
677  3905
676  3800
675  3830
674  3985
673  3960
672  3840
671  3845
670  4275
669  4675
668  4950
667  5450
666  5525
665  4895
664  4340
663  3980
662  3965
661  3685
660  3840
659  3710
658  3605
657  3770
656  3705
655  3575
654  3515
653  3750
652  3730
651  3700
650  3510
649  3410
648  3420
647  3620
646  3630
645  3475
644  3520
643  3470
642  3560
641  3385
640  3445
639  3625
638  3675
637  3755
636  3760
635  3420
634  3500
633  3455
632  3570
631  3555
630  3215
629  3510
628  3715
627  3385
626  3435
625  3515
624  3570
623  3635
622  3630
621  3805
620  3635
619  3780
618  3830
617  4015
616  3755
615  3625
614  3805
613  3735
612  3745
611  3640
610  3785
609  3860
608  3595
607  3645
606  3710
605  3635
604  3600
603  3830
602  3575
601  3690
600  3790
599  3715
598  3835
597  3970
596  4120
595  3785
594  3625
593  3920
592  3595
591  3765
590  3905
589  4015
588  3530
587  3630
586  3570
585  3790
584  3670
583  3680
582  4250
581  3710
580  3905
579  4060
578  3750
577  3695
576  4000
575  4195
574  3670
573  3815
572  4050
571  3825
570  3745
569  3705
568  3945
567  3880
566  4000
565  3955
564  3930
563  3915
562  3960
561  4050
560  4015
559  3790
558  3935
557  4045
556  3800
555  3815
554  3935
553  4275
552  4205
551  3955
550  4035
549  3945
548  3825
547  3715
546  4040
545  3935
544  3895
543  3665
542  3880
541  4030
540  3715
539  3890
538  3610
537  3945
536  3765
535  3830
534  4110
533  4130
532  4860
531  5245
530  5065
529  4105
528  3665
527  3690
526  3770
525  3675
524  3605
523  3870
522  3810
521  3765
520  3810
519  3745
518  3730
517  3645
516  3625
515  3530
514  3555
513  3460
512  3625
511  3745
510  3780
509  3615
508  3850
507  3985
506  3525
505  3775
504  3815
503  3795
502  3715
501  3535
500  3795
499  3935
498  3880
497  3965
496  4330
495  3955
494  3960
493  3735
492  3860
491  3635
490  3765
489  3880
488  4095
487  4250
486  3770
485  3690
484  3705
483  3605
482  3775
481  3900
480  3830
479  3775
478  3795
477  3835
476  4130
475  4185
474  3930
473  3790
472  4145
471  4000
470  3980
469  3945
468  4240
467  3975
466  3995
465  3775
464  3790
463  3540
462  3585
461  3290
460  3170
459  2805
458  2885
457  3080
456  3080
455  3665
454  5715
453  7845
452  6365
451  3480
450  2580
449  2380
448  2880
447  4830
446  8635
445  10005
444  6215
443  3145
442  2180
441  1975
440  1820
439  1890
438  1600
437  1720
436  2010
435  1995
434  2005
433  1740
432  1595
431  1485
430  1420
429  1290
428  1525
427  1450
426  1350
425  1445
424  1275
423  1460
422  1470
421  1540
420  1435
419  1355
418  1445
417  1280
416  1415
415  1325
414  1445
413  1395
412  1445
411  1240
410  1365
409  1380
408  1430
407  1390
406  1400
405  1320
404  1335
403  1420
402  1435
401  1460
400  1355
399  1350
398  1495
397  1410
396  1375
395  1300
394  1260
393  1195
392  1360
391  1480
390  1335
389  1390
388  1375
387  1390
386  1300
385  1420
384  1430
383  1430
382  1385
381  1585
380  1295
379  1320
378  1215
377  1315
376  1390
375  1535
374  1380
373  1475
372  1215
371  1325
370  1290
369  1165
368  1280
367  1315
366  1235
365  1340
364  1190
363  1300
362  1350
361  1265
360  1295
359  1180
358  1290
357  1410
356  1250
355  1140
354  1225
353  1250
352  1435
351  1400
350  1240
349  1435
348  1415
347  1365
346  1375
345  1275
344  1330
343  1305
342  1355
341  1460
340  1195
339  1475
338  1405
337  1530
336  1365
335  1320
334  1340
333  1515
332  1295
331  1300
330  1410
329  1255
328  1430
327  1290
326  1530
325  1450
324  1335
323  1465
322  1340
321  1325
320  1365
319  1350
318  1235
317  1455
316  1395
315  1300
314  1385
313  1160
312  1440
311  1385
310  1575
309  1595
308  1570
307  1555
306  1435
305  1480
304  1505
303  1330
302  1355
301  1505
300  1520
299  1395
298  1455
297  1395
296  1530
295  1390
294  1500
293  1430
292  1540
291  1445
290  1530
289  1715
288  1600
287  1730
286  1545
285  1515
284  1500
283  1410
282  1430
281  1395
280  1610
279  1445
278  1430
277  1270
276  1565
275  1550
274  1560
273  1730
272  1940
271  2065
270  2440
269  1995
268  1750
267  1520
266  1610
265  1580
264  1525
263  1395
262  1480
261  1615
260  1495
259  1555
258  1510
257  1655
256  1455
255  1440
254  1725
253  1615
252  1440
251  1475
250  1570
249  1340
248  1570
247  1465
246  1420
245  1375
244  1495
243  1535
242  1670
241  1500
240  1460
239  1375
238  1505
237  1460
236  1545
235  1465
234  1460
233  1365
232  1650
231  1640
230  1500
229  1580
228  1580
227  1580
226  1440
225  1600
224  1615
223  1660
222  1470
221  1520
220  1575
219  1655
218  1590
217  1675
216  1785
215  1655
214  1710
213  1585
212  1710
211  1615
210  1615
209  1610
208  1630
207  1505
206  1595
205  1540
204  1535
203  1675
202  1795
201  2540
200  2840
199  3055
198  1980
197  1530
196  1500
195  1585
194  1540
193  1740
192  1610
191  1665
190  1855
189  1740
188  1560
187  1570
186  1550
185  1470
184  1490
183  1440
182  1530
181  1860
180  2065
179  2020
178  1750
177  1670
176  1430
175  1490
174  1465
173  1410
172  1305
171  1435
170  1415
169  1360
168  1295
167  1445
166  1405
165  1435
164  1425
163  1375
162  1410
161  1340
160  1455
159  1510
158  1395
157  1340
156  1480
155  1400
154  1400
153  1555
152  1430
151  1390
150  1445
149  1360
148  1455
147  1385
146  1400
145  1400
144  1470
143  1435
142  1405
141  1425
140  1510
139  1495
138  1435
137  1395
136  1270
135  1335
134  1480
133  1505
132  1455
131  1545
130  1635
129  1610
128  1570
127  1535
126  1565
125  1660
124  1750
123  1785
122  1635
121  1610
120  1640
119  1530
118  1665
117  1580
116  1420
115  1505
114  1675
113  1535
112  1470
111  1400
110  1510
109  1490
108  1550
107  1645
106  1560
105  1600
104  1430
103  1650
102  1685
101  1420
100  1585
99  1575
98  1530
97  1465
96  1645
95  2130
94  2560
93  2565
92  2750
91  3120
90  2060
89  1645
88  1460
87  1355
86  1460
85  1430
84  1580
83  1520
82  1705
81  1625
80  1475
79  1410
78  1525
77  1385
76  1510
75  1230
74  1290
73  1400
72  1285
71  1240
70  1180
69  1155
68  1045
67  1160
66  1170
65  1060
64  1125
63  955
62  1010
61  975
60  1170
59  990
58  1130
57  1050
56  1125
55  1010
54  1145
53  1145
52  1150
51  1095
50  1075
49  1010
48  1105
47  1330
46  1220
45  1210
44  1195
43  1175
42  1145
41  1295
40  1050
39  1135
38  1135
37  1290
36  1075
35  1060
34  1205
33  1045
32  1055
31  995
30  1020
29  1040
28  1165
27  1130
26  1130
25  1065
24  1075
23  1015
22  1090
21  1180
20  2090
19  2825
18  2475
17  1600
16  1115
15  1020
14  775
13  825
12  710
11  740
10  840
9  960
8  1020
7  1030
6  940
5  890
4  880
3  710
2  665
1  710
-2.2737368e-013  685
-1  670
-2  680
-3  705
-4  705

# Region:            N1s
# Acquisition Date:  08/26/22 14:36:17 UTC
# Analysis Method:   XPS
# Analyzer:          Phoibos 100 R6
# Analyzer Lens:     LargeArea:1.5kV
# Analyzer Slit:     1:0.2x20\B:open
# Scan Mode:         FixedAnalyzerTransmission
# Curves/Scan:       1
# Values/Curve:      121
# Dwell Time:        0.8
# Excitation Energy: 1486.61
# Binding Energy:    409
# Pass Energy:       30
# Bias Voltage:      90
# Detector Voltage:  2600
# Eff. Workfunction: 4.309
# Source:            X-Ray Dummy
# Comment:           
#
# Cycle: 0
# Number of Scans: 49
#
# Cycle: 0, Curve: 0
# Acquisition Date: 08/26/22 14:36:17 UTC
#
# ColumnLabels: energy counts/s
#
409  1076.352
408.9  1080.1276
408.8  1091.5816
408.7  1073.5714
408.6  1075.0765
408.5  1075.5612
408.4  1074.1327
408.3  1073.6224
408.2  1082.7041
408.1  1078.8265
408  1087.2704
407.9  1078.801
407.8  1086.6327
407.7  1090.3827
407.6  1070.4337
407.5  1072.551
407.4  1077.9337
407.3  1080.7653
407.2  1083.6224
407.1  1088.7755
407  1086.4796
406.9  1090.8673
406.8  1082.7296
406.7  1085.5102
406.6  1079.5408
406.5  1088.5459
406.4  1091.301
406.3  1084.4133
406.2  1082.551
406.1  1075.0765
406  1083.4439
405.9  1080.3316
405.8  1070.4082
405.7  1079.7449
405.6  1093.0102
405.5  1080.1786
405.4  1094.3622
405.3  1083.1122
405.2  1076.7602
405.1  1079.2347
405  1083.2143
404.9  1091.7857
404.8  1090.3827
404.7  1089.3367
404.6  1079.4388
404.5  1087.3469
404.4  1075.1276
404.3  1083.6224
404.2  1078.2398
404.1  1084.1837
404  1080.7653
403.9  1078.1633
403.8  1085.2806
403.7  1093.3929
403.6  1089.1071
403.5  1092.5765
403.4  1081.8878
403.3  1092.3214
403.2  1097.3469
403.1  1087.6531
403  1084.5408
402.9  1091.148
402.8  1091.301
402.7  1097.8571
402.6  1096.0969
402.5  1097.7806
402.4  1090.6888
402.3  1101.9133
402.2  1094.4898
402.1  1101.148
402  1100.1276
401.9  1091.199
401.8  1087.2959
401.7  1097.9592
401.6  1097.0918
401.5  1100.9949
401.4  1098.6735
401.3  1096.6837
401.2  1099.9745
401.1  1095.2041
401  1091.352
400.9  1106.0969
400.8  1090.6122
400.7  1094.9745
400.6  1087.9082
400.5  1098.9541
400.4  1094.9235
400.3  1097.9592
400.2  1093.9796
400.1  1085.8163
400  1097.0408
399.9  1092.2449
399.8  1086.7857
399.7  1091.2245
399.6  1093.4439
399.5  1081.25
399.4  1087.7041
399.3  1078.5969
399.2  1090.6888
399.1  1087.551
399  1076.1735
398.9  1090.0765
398.8  1081.199
398.7  1078.0612
398.6  1081.25
398.5  1074.2347
398.4  1088.1888
398.3  1083.1122
398.2  1084.6173
398.1  1078.1122
398  1061.4031
397.9  1077.449
397.8  1066.4541
397.7  1074.1582
397.6  1068.2398
397.5  1075.7908
397.4  1072.0153
397.3  1071.9388
397.2  1066.2245
397.1  1075.5102
397  1068.648

# Region:            O1s
# Acquisition Date:  08/26/22 12:47:50 UTC
# Analysis Method:   XPS
# Analyzer:          Phoibos 100 R6
# Analyzer Lens:     LargeArea:1.5kV
# Analyzer Slit:     1:0.2x20\B:open
# Scan Mode:         FixedAnalyzerTransmission
# Curves/Scan:       1
# Values/Curve:      141
# Dwell Time:        0.8
# Excitation Energy: 1486.61
# Binding Energy:    541
# Pass Energy:       30
# Bias Voltage:      90
# Detector Voltage:  2600
# Eff. Workfunction: 4.309
# Source:            X-Ray Dummy
# Comment:           
#
# Cycle: 0
# Number of Scans: 19
#
# Cycle: 0, Curve: 0
# Acquisition Date: 08/26/22 12:47:50 UTC
#
# ColumnLabels: energy counts/s
#
541  3299.1447
540.9  3316.4474
540.8  3312.4342
540.7  3303.9474
540.6  3270.9868
540.5  3312.8947
540.4  3289.2105
