# Created by:        SpecsLab Prodigy, Version 4.60.2-r85849 
#
# XY-Serializer Export Settings:
#   Comment Prefix:           #
#   Output meta data:         yes
#   Energy Axis:              Binding Energy
#   Count Rate:               Counts per Second
#   Separate Scan Data:       no
#   Separate Channel Data:    no
#   External Channel Data:    yes
#   Transmission Function:    no
#   ErrorBar:                 no
#   Operation Results:        yes
#   Time Zone Format:         UTC
#
# Group:             Spectrum Group
#
# Region:            Ba3d
# Acquisition Date:  08/31/22 20:51:30 UTC
# Analysis Method:   XPS
# Analyzer:          Phoibos 100 R6
# Analyzer Lens:     LargeArea:1.5kV
# Analyzer Slit:     1:0.2x20\B:open
# Scan Mode:         FixedAnalyzerTransmission
# Curves/Scan:       1
# Values/Curve:      121
# Dwell Time:        0.8
# Excitation Energy: 1486.61
# Binding Energy:    789
# Pass Energy:       30
# Bias Voltage:      90
# Detector Voltage:  2600
# Eff. Workfunction: 4.309
# Source:            X-Ray Dummy
# Comment:           
#
# Cycle: 0
# Number of Scans: 20
#
# Cycle: 0, Curve: 0
# Acquisition Date: 08/31/22 20:51:30 UTC
#
# ColumnLabels: energy counts/s
#
789  5163.625
788.9  5149.8125
788.8  5129.8125
788.7  5160.5625
788.6  5151.0625
788.5  5145.9375
788.4  5177.25
788.3  5180.375
788.2  5172
788.1  5189.6875
788  5164.1875
787.9  5162.6875
787.8  5168.6875
787.7  5197.8125
787.6  5190.5
787.5  5190.1875
787.4  5216.75
787.3  5222.75
787.2  5220.3125
787.1  5187.25
787  5218.6875
786.9  5204.375
786.8  5202.6875
786.7  5205.5
786.6  5214.4375
786.5  5202.6875
786.4  5182.0625
786.3  5179.75
786.2  5224.75
786.1  5200.0625
786  5189.3125
785.9  5209.6875
785.8  5198.0625
785.7  5208.6875
785.6  5192.1875
785.5  5218.3125
785.4  5225.625
785.3  5208.625
785.2  5218.625
785.1  5179.375
785  5242.75
784.9  5204.0625
784.8  5218.9375
784.7  5242.9375
784.6  5229.75
784.5  5259
784.4  5283.9375
784.3  5267.375
784.2  5292.375
784.1  5320.9375
784  5314.25
783.9  5362.6875
783.8  5382.0625
783.7  5482.5
783.6  5505.3125
783.5  5583.1875
783.4  5638.0625
783.3  5639.125
783.2  5771.625
783.1  5878
783  5995.8125
782.9  6101.5625
782.8  6224.25
782.7  6385.0625
782.6  6483.3125
782.5  6668.625
782.4  6830.4375
782.3  6955.4375
782.2  7167.6875
782.1  7299.125
782  7469.9375
781.9  7544.9375
781.8  7721.4375
781.7  7753.625
781.6  7846.3125
781.5  7872.5625
781.4  7852.25
781.3  7831.375
781.2  7761.75
781.1  7665.875
781  7540.4375
780.9  7319.25
780.8  7226.125
780.7  7058.375
780.6  6849.3125
780.5  6653.875
780.4  6510.75
780.3  6304.125
780.2  6141.3125
780.1  6009.625
780  5875.25
779.9  5756.75
779.8  5673.625
779.7  5571.3125
779.6  5440.4375
779.5  5429.5625
779.4  5371.5
779.3  5291.5
779.2  5273.3125
779.1  5234.1875
779  5186.75
778.9  5191.25
778.8  5182.25
778.7  5143.8125
778.6  5130.6875
778.5  5087.0625
778.4  5079.4375
778.3  5099.1875
778.2  5049.25
778.1  5060.3125
778  5057.625
777.9  5033.1875
777.8  5017.5
777.7  5023.625
777.6  5037.5
777.5  5027.125
777.4  5016.3125
777.3  5027.4375
777.2  4987.75
777.1  4995.875
777  4999.8125

# Region:            O1s(2)
# Acquisition Date:  08/31/22 16:41:49 UTC
# Analysis Method:   XPS
# Analyzer:          Phoibos 100 R6
# Analyzer Lens:     LargeArea:1.5kV
# Analyzer Slit:     1:0.2x20\B:open
# Scan Mode:         FixedAnalyzerTransmission
# Curves/Scan:       1
# Values/Curve:      141
# Dwell Time:        0.8
# Excitation Energy: 1486.61
# Binding Energy:    541
# Pass Energy:       30
# Bias Voltage:      90
# Detector Voltage:  2600
# Eff. Workfunction: 4.309
# Source:            X-Ray Dummy
# Comment:           
#
# Cycle: 0
# Number of Scans: 1
#
# Cycle: 0, Curve: 0
# Acquisition Date: 08/31/22 16:41:49 UTC
#
# ColumnLabels: energy counts/s
#
541  3366.25
540.9  3348.75
540.8  3341.25
540.7  3278.75
540.6  3338.75
540.5  3406.25
540.4  3368.75
540.3  3402.5
540.2  3351.25
540.1  3311.25
540  3430
539.9  3310
539.8  3432.5
539.7  3280
539.6  3380
539.5  3532.5
539.4  3395
539.3  3466.25
539.2  3380
539.1  3438.75
539  3333.75
538.9  3307.5
538.8  3300
538.7  3378.75
538.6  3391.25
538.5  3376.25
538.4  3316.25
538.3  3412.5
538.2  3357.5
538.1  3341.25
538  3340
537.9  3262.5
537.8  3295
537.7  3320
537.6  3441.25
537.5  3418.75
537.4  3497.5
537.3  3293.75
537.2  3447.5
537.1  3447.5
537  3420
536.9  3322.5
536.8  3348.75
536.7  3273.75
536.6  3361.25
536.5  3183.75
536.4  3380
536.3  3305
536.2  3331.25
536.1  3286.25
536  3337.5
535.9  3402.5
535.8  3402.5
535.7  3393.75
535.6  3437.5
535.5  3460
535.4  3372.5
535.3  3376.25
535.2  3382.5
535.1  3376.25
535  3235
534.9  3476.25
534.8  3378.75
534.7  3508.75
534.6  3468.75
534.5  3456.25
534.4  3701.25
534.3  3642.5
534.2  3605
534.1  3583.75
534  3711.25
533.9  3606.25
533.8  3837.5
533.7  3812.5
533.6  3911.25
533.5  3970
533.4  3945
533.3  4107.5
533.2  4105
533.1  4258.75
533  4195
532.9  4425
532.8  4325
532.7  4388.75
532.6  4591.25
532.5  4818.75
532.4  4741.25
532.3  4843.75
532.2  5005
532.1  4948.75
532  5087.5
531.9  5210
531.8  5326.25
531.7  5477.5
531.6  5480
531.5  5581.25
531.4  5652.5
531.3  5637.5
531.2  5853.75
531.1  5670
531  5682.5
530.9  5650
530.8  5733.75
530.7  5715
530.6  5455
530.5  5432.5
530.4  5226.25
530.3  5241.25
530.2  5053.75
530.1  4866.25
530  4651.25
529.9  4530
529.8  4206.25
529.7  4178.75
529.6  4077.5
529.5  3813.75
529.4  3861.25
529.3  3671.25
529.2  3490
529.1  3510
529  3518.75
528.9  3391.25
528.8  3462.5
528.7  3436.25
528.6  3331.25
528.5  3443.75
528.4  3278.75
528.3  3287.5
528.2  3260
528.1  3317.5
528  3216.25
527.9  3081.25
527.8  3330
527.7  3190
527.6  3248.75
527.5  3335
527.4  3288.75
527.3  3268.75
527.2  3317.5
527.1  3290
527  3225

# Region:            C1s
# Acquisition Date:  09/01/22 00:10:33 UTC
# Analysis Method:   XPS
# Analyzer:          Phoibos 100 R6
# Analyzer Lens:     LargeArea:1.5kV
# Analyzer Slit:     1:0.2x20\B:open
# Scan Mode:         FixedAnalyzerTransmission
# Curves/Scan:       1
# Values/Curve:      151
# Dwell Time:        0.8
# Excitation Energy: 1486.61
# Binding Energy:    295
# Pass Energy:       30
# Bias Voltage:      90
# Detector Voltage:  2600
# Eff. Workfunction: 4.309
# Source:            X-Ray Dummy
# Comment:           
#
# Cycle: 0
# Number of Scans: 50
#
# Cycle: 0, Curve: 0
# Acquisition Date: 09/01/22 00:10:33 UTC
#
# ColumnLabels: energy counts/s
#
295  982.4
294.9  991.7
294.8  982.75
294.7  981.3
294.6  972.725
294.5  987.325
294.4  986.6
294.3  976.125
294.2  981.75
294.1  981.525
294  985.425
293.9  984.725
293.8  977.5
293.7  978.925
293.6  988
293.5  980.925
293.4  979.7
293.3  980.325
293.2  973.1
293.1  983.15
293  987.9
292.9  987.35
292.8  981.075
292.7  976.425
292.6  988.475
292.5  976.625
292.4  987.025
292.3  984.175
292.2  995.925
292.1  977.5
292  990.5
291.9  987.3
291.8  983.275
291.7  979.675
291.6  987.325
291.5  985.75
291.4  996.375
291.3  990.95
291.2  989.525
291.1  998.225
291  997.925
290.9  1000.775
290.8  1007.05
290.7  1001.275
290.6  1004.625
290.5  1017.975
290.4  1014.15
290.3  1025.975
290.2  1018.575
290.1  1028.575
290  1023.85
289.9  1029.225
289.8  1021.9
289.7  1033.45
289.6  1042
289.5  1038.25
289.4  1037.15
289.3  1034.075
289.2  1040.85
289.1  1039.15
289  1044.25
288.9  1043.4
288.8  1042.75
288.7  1046.875
288.6  1059.05
288.5  1054.675
288.4  1056.825
288.3  1062.125
288.2  1066.35
288.1  1064.075
288  1075.075
287.9  1075.725
287.8  1082.175
287.7  1095.9
287.6  1108.075
287.5  1124.125
287.4  1134.65
287.3  1147.6
287.2  1158.225
287.1  1182.575
287  1202.8
286.9  1221.35
286.8  1232.175
286.7  1257.05
286.6  1283.6
286.5  1295.975
286.4  1312.025
286.3  1341.05
286.2  1360.35
286.1  1387.675
286  1395.425
285.9  1409.125
285.8  1413.575
285.7  1420.625
285.6  1427.025
285.5  1427.925
285.4  1427.5
285.3  1419.9
285.2  1387
285.1  1363
285  1331.175
284.9  1309.875
284.8  1281.35
284.7  1248.525
284.6  1206.025
284.5  1185.675
284.4  1155
284.3  1133.65
284.2  1110.75
284.1  1086.35
284  1073.5
283.9  1040.1
283.8  1037.9
283.7  1027.025
283.6  1010.825
283.5  1000.5
283.4  1006.6
283.3  992.475
283.2  983.9
283.1  988.675
283  989.15
282.9  983.875
282.8  984.625
282.7  973.725
282.6  981.3
282.5  973.925
282.4  971.675
282.3  966.625
282.2  965.975
282.1  965.95
282  973.25
281.9  967.15
281.8  969.175
281.7  963.475
281.6  972.45
281.5  973.4
281.4  972.375
281.3  970.05
281.2  963.05
281.1  968.2
281  969.825
280.9  970.65
280.8  970.5
280.7  973.075
280.6  960.575
280.5  965.875
280.4  964.85
280.3  969.4
280.2  971.125
280.1  966.375
280  971.475

# Region:            N1s
# Acquisition Date:  09/01/22 01:33:46 UTC
# Analysis Method:   XPS
# Analyzer:          Phoibos 100 R6
# Analyzer Lens:     LargeArea:1.5kV
# Analyzer Slit:     1:0.2x20\B:open
# Scan Mode:         FixedAnalyzerTransmission
# Curves/Scan:       1
# Values/Curve:      121
# Dwell Time:        0.8
# Excitation Energy: 1486.61
# Binding Energy:    409
# Pass Energy:       30
# Bias Voltage:      90
# Detector Voltage:  2600
# Eff. Workfunction: 4.309
# Source:            X-Ray Dummy
# Comment:           
#
# Cycle: 0
# Number of Scans: 100
#
# Cycle: 0, Curve: 0
# Acquisition Date: 09/01/22 01:33:46 UTC
#
# ColumnLabels: energy counts/s
#
409  1045.025
408.9  1038.1125
408.8  1051.4375
408.7  1048.8375
408.6  1051.475
408.5  1041.5375
408.4  1051.275
408.3  1050.3125
408.2  1049.1125
408.1  1048.0625
408  1053.8125
407.9  1047.0375
407.8  1044
407.7  1051.175
407.6  1043.1125
407.5  1056.1875
407.4  1047.4
407.3  1049.35
407.2  1045.8625
407.1  1053.2875
407  1053.7125
406.9  1051.2875
406.8  1040.9375
406.7  1052.65
406.6  1048.25
406.5  1049.925
406.4  1043.075
406.3  1046.8875
406.2  1051.725
406.1  1051.1375
406  1053.3125
405.9  1049.575
405.8  1054.1125
405.7  1051.125
405.6  1051.1125
405.5  1055.775
405.4  1047.525
405.3  1043.1875
405.2  1050.2125
405.1  1050.175
405  1051.5375
404.9  1052.375
404.8  1046.9
404.7  1054.975
404.6  1055.9
404.5  1052.725
404.4  1056.15
404.3  1051.5875
404.2  1056
404.1  1051.35
404  1051.375
403.9  1051.4875
403.8  1050.525
403.7  1054.425
403.6  1048.95
403.5  1054.4875
403.4  1051.4375
403.3  1057.65
403.2  1053.825
403.1  1048.0875
403  1052.075
402.9  1056.725
402.8  1049.375
402.7  1056.85
402.6  1051.9875
402.5  1052.4875
402.4  1053.0625
402.3  1050.8875
402.2  1055.95
402.1  1051.075
402  1054.6625
401.9  1060.9375
401.8  1050.8
401.7  1060.9125
401.6  1060.05
401.5  1063.375
401.4  1059.9125
401.3  1066.225
401.2  1068.9375
401.1  1061.1125
401  1066.2125
400.9  1065.7375
400.8  1072.25
400.7  1070.8125
400.6  1064.6
400.5  1062.375
400.4  1062.2375
400.3  1067.6125
400.2  1063.2125
400.1  1059.325
400  1059.275
399.9  1057.2875
399.8  1055.05
399.7  1054.6875
399.6  1061.05
399.5  1061
399.4  1046.725
399.3  1047
399.2  1052.3125
399.1  1046.425
399  1054.2375
398.9  1046.3
398.8  1046.6375
398.7  1050.1
398.6  1043.85
398.5  1039.625
398.4  1039.75
398.3  1043.975
398.2  1035.5625
398.1  1033.8375
398  1052.8875
397.9  1037.425
397.8  1040.0875
397.7  1040.6625
397.6  1033.625
397.5  1034.5875
397.4  1036.55
397.3  1040.775
397.2  1036.5125
397.1  1031.6125
397  1029.625

# Region:            Si2p
# Acquisition Date:  08/31/22 22:40:39 UTC
# Analysis Method:   XPS
# Analyzer:          Phoibos 100 R6
# Analyzer Lens:     LargeArea:1.5kV
# Analyzer Slit:     1:0.2x20\B:open
# Scan Mode:         FixedAnalyzerTransmission
# Curves/Scan:       1
# Values/Curve:      261
# Dwell Time:        0.8
# Excitation Energy: 1486.61
# Binding Energy:    115
# Pass Energy:       30
# Bias Voltage:      90
# Detector Voltage:  2600
# Eff. Workfunction: 4.309
# Source:            X-Ray Dummy
# Comment:           
#
# Cycle: 0
# Number of Scans: 30
#
# Cycle: 0, Curve: 0
# Acquisition Date: 08/31/22 22:40:39 UTC
#
# ColumnLabels: energy counts/s
#
115  948.41667
114.9  939.91667
114.8  945.375
114.7  946.33333
114.6  947.41667
114.5  936.04167
114.4  950.20833
114.3  942.04167
114.2  931.375
114.1  944
114  936.75
113.9  939.58333
113.8  945
113.7  943.125
113.6  937.58333
113.5  938.70833
113.4  935.58333
113.3  937.08333
113.2  934.125
113.1  928.54167
113  936.58333
112.9  953.625
112.8  941.75
112.7  939.83333
112.6  942.625
112.5  937.16667
112.4  939.16667
112.3  943.54167
112.2  940.54167
112.1  935.75
112  943.16667
111.9  926.20833
111.8  935.5
111.7  929.875
111.6  931.66667
111.5  933.41667
111.4  938.16667
111.3  938.75
111.2  932.375
111.1  937.04167
111  932.66667
110.9  934.83333
110.8  933.16667
110.7  927.58333
110.6  940.25
110.5  940.95833
110.4  931.79167
110.3  930.41667
110.2  927.70833
110.1  939.54167
110  939.5
109.9  938.95833
109.8  942.29167
109.7  942.29167
109.6  940.33333
109.5  940.79167
109.4  930.79167
109.3  935.75
109.2  946.375
109.1  939.08333
109  939.04167
108.9  937.79167
108.8  934.29167
108.7  935.75
108.6  942.54167
108.5  948.25
108.4  935.875
108.3  932.91667
108.2  944.54167
108.1  933.04167
108  944.45833
107.9  930.16667
107.8  943.375
107.7  936.79167
107.6  943.75
107.5  939.625
107.4  936.83333
107.3  938.29167
107.2  951.95833
107.1  933.08333
107  935.66667
106.9  937.375
106.8  941.33333
106.7  938.58333
106.6  943.16667
106.5  934.125
106.4  942.16667
106.3  947.04167
106.2  945.66667
106.1  946.125
106  950.79167
105.9  957.04167
105.8  958.45833
105.7  951.66667
105.6  959
105.5  937.41667
105.4  960.5
105.3  951.75
105.2  951.83333
105.1  955.75
105  957.5
104.9  962.125
104.8  953.79167
104.7  955.625
104.6  956.33333
104.5  945.625
104.4  949.54167
104.3  951.70833
104.2  955.95833
104.1  976.29167
104  973.70833
103.9  958.33333
103.8  966.25
103.7  964.125
103.6  977
103.5  979.45833
103.4  961.66667
103.3  967.70833
103.2  961.875
103.1  973.33333
103  966.29167
102.9  968.79167
102.8  986.58333
102.7  973.45833
102.6  972.875
102.5  978
102.4  968.95833
102.3  957.625
102.2  965.25
102.1  973
102  962.91667
101.9  963.91667
101.8  953.83333
101.7  965.45833
101.6  954.125
101.5  950.45833
101.4  948.66667
101.3  958.79167
101.2  947.25
101.1  953.29167
101  955.875
100.9  950
100.8  959.25
100.7  949.95833
100.6  956.875
100.5  954.04167
100.4  955.75
100.3  957.66667
100.2  940.75
100.1  958.66667
100  967.25
99.9  944.25
99.8  960.25
99.7  954.66667
99.6  947.54167
99.5  943.16667
99.4  952.08333
99.3  952.83333
99.2  950.54167
99.1  950.58333
99  963.20833
98.9  953.58333
98.8  953
98.7  955
98.6  948
98.5  955.70833
98.4  958.83333
98.3  956.41667
98.2  949.75
98.1  969.41667
98  942.16667
97.9  953.79167
97.8  948.70833
97.7  953.04167
97.6  965.08333
97.5  960.29167
97.4  953.08333
97.3  953.91667
97.2  948.25
97.1  960
97  958.20833
96.9  953.16667
96.8  963.91667
96.7  956
96.6  962.04167
96.5  967.75
96.4  966.54167
96.3  962.91667
96.2  954.79167
96.1  954.33333
96  964.33333
95.9  961.95833
95.8  969.25
95.7  982.33333
95.6  982.16667
95.5  985.08333
95.4  999.29167
95.3  1008.75
95.2  1017.75
95.1  1017.875
95  1024.5
94.9  1031.2083
94.8  1038.5
94.7  1055.9583
94.6  1076.0417
94.5  1087.6667
94.4  1095.9167
94.3  1120.5417
94.2  1127
94.1  1138.0833
94  1139.1667
93.9  1167.9167
93.8  1163.5
93.7  1174.375
93.6  1164.8333
93.5  1171.75
93.4  1154.4583
93.3  1143.9167
93.2  1140.3333
93.1  1142.5417
93  1133.8333
92.9  1123.0417
92.8  1120.9167
92.7  1110.125
92.6  1114.375
92.5  1124
92.4  1105.2917
92.3  1123.9583
92.2  1118.875
92.1  1122.2083
92  1136.5417
91.9  1162.2917
91.8  1174.8333
91.7  1183.9167
91.6  1202.7917
91.5  1223.6667
91.4  1220.8333
91.3  1253.3333
91.2  1242.9167
91.1  1250.5
91  1240.4583
90.9  1232.4583
90.8  1234.2083
90.7  1210.7917
90.6  1212.75
90.5  1174.9583
90.4  1166.375
90.3  1153.4167
90.2  1113.625
90.1  1105.9583
90  1092.7917
89.9  1064.625
89.8  1056.7917
89.7  1039.0833
89.6  1023.375
89.5  1007.625
89.4  1010.375
89.3  1013.75
89.2  998.375
89.1  992.5
89  1003.2083

# Region:            In3d
# Acquisition Date:  08/31/22 17:46:19 UTC
# Analysis Method:   XPS
# Analyzer:          Phoibos 100 R6
# Analyzer Lens:     LargeArea:1.5kV
# Analyzer Slit:     1:0.2x20\B:open
# Scan Mode:         FixedAnalyzerTransmission
# Curves/Scan:       1
# Values/Curve:      231
# Dwell Time:        0.8
# Excitation Energy: 1486.61
# Binding Energy:    460
# Pass Energy:       30
# Bias Voltage:      90
# Detector Voltage:  2600
# Eff. Workfunction: 4.309
# Source:            X-Ray Dummy
# Comment:           
#
# Cycle: 0
# Number of Scans: 4
#
# Cycle: 0, Curve: 0
# Acquisition Date: 08/31/22 17:46:19 UTC
#
# ColumnLabels: energy counts/s
#
460  2667.5
459.9  2593.4375
459.8  2641.875
459.7  2648.4375
459.6  2634.375
459.5  2667.1875
459.4  2617.1875
459.3  2612.8125
459.2  2566.5625
459.1  2552.1875
459  2590.9375
458.9  2550.9375
458.8  2587.5
458.7  2526.25
458.6  2493.4375
458.5  2527.1875
458.4  2511.875
458.3  2551.875
458.2  2508.125
458.1  2564.375
458  2498.4375
457.9  2531.875
457.8  2470.9375
457.7  2554.6875
457.6  2554.375
457.5  2523.75
457.4  2507.1875
457.3  2532.1875
457.2  2559.6875
457.1  2549.375
457  2495.9375
456.9  2528.125
456.8  2607.1875
456.7  2565.9375
456.6  2620.3125
456.5  2600
456.4  2620.3125
456.3  2675
456.2  2718.125
456.1  2664.375
456  2794.0625
455.9  2794.0625
455.8  2832.1875
455.7  2933.125
455.6  2989.0625
455.5  3098.4375
455.4  3169.375
455.3  3199.375
455.2  3339.6875
455.1  3520.3125
455  3669.0625
454.9  3841.25
454.8  3958.125
454.7  4212.5
454.6  4326.5625
454.5  4580
454.4  4857.5
454.3  5163.75
454.2  5397.1875
454.1  5707.5
454  5995
453.9  6218.125
453.8  6614.6875
453.7  6873.75
453.6  7085
453.5  7386.875
453.4  7718.125
453.3  7823.125
453.2  8025.9375
453.1  8214.375
453  8208.75
452.9  8348.125
452.8  8294.6875
452.7  8101.5625
452.6  7926.875
452.5  7752.8125
452.4  7400.625
452.3  6871.5625
452.2  6545.3125
452.1  6031.875
452  5670.3125
451.9  5236.25
451.8  4775.3125
451.7  4398.4375
451.6  3929.6875
451.5  3634.0625
451.4  3368.75
451.3  3077.8125
451.2  2892.8125
451.1  2690.3125
451  2565
450.9  2385.625
450.8  2292.8125
450.7  2219.375
450.6  2153.4375
450.5  2171.25
450.4  2097.1875
450.3  2037.5
450.2  2025.3125
450.1  2048.125
450  2034.6875
449.9  1997.1875
449.8  2021.5625
449.7  1986.875
449.6  2009.0625
449.5  1999.6875
449.4  2029.375
449.3  2033.4375
449.2  2030
449.1  2030
449  2094.0625
448.9  2088.4375
448.8  2153.75
448.7  2160
448.6  2214.0625
448.5  2293.4375
448.4  2366.25
448.3  2440.3125
448.2  2588.75
448.1  2671.25
448  2776.25
447.9  2893.125
447.8  3030.625
447.7  3302.5
447.6  3425
447.5  3591.25
447.4  3873.125
447.3  4115.625
447.2  4378.125
447.1  4749.6875
447  5091.25
446.9  5482.5
446.8  5791.875
446.7  6212.8125
446.6  6661.25
446.5  6996.25
446.4  7479.375
446.3  7919.375
446.2  8306.25
446.1  8806.25
446  9256.875
445.9  9567.8125
445.8  9972.1875
445.7  10237.188
445.6  10485.938
445.5  10453.75
445.4  10758.125
445.3  10835
445.2  10599.063
445.1  10381.563
445  10186.25
444.9  9738.125
444.8  9221.5625
444.7  8735.625
444.6  8120.3125
444.5  7535.9375
444.4  6811.875
444.3  6262.8125
444.2  5693.125
444.1  5106.875
444  4586.5625
443.9  4199.6875
443.8  3718.125
443.7  3379.375
443.6  3194.375
443.5  2978.125
443.4  2853.75
443.3  2690.3125
443.2  2486.875
443.1  2422.1875
443  2363.75
442.9  2325.625
442.8  2230
442.7  2154.6875
442.6  2171.5625
442.5  2075.625
442.4  2070
442.3  2022.5
442.2  1954.6875
442.1  1904.6875
442  1863.75
441.9  1810
441.8  1820.9375
441.7  1798.4375
441.6  1724.375
441.5  1738.4375
441.4  1724.0625
441.3  1673.4375
441.2  1714.6875
441.1  1638.75
441  1607.8125
440.9  1611.25
440.8  1575.3125
440.7  1619.0625
440.6  1562.5
440.5  1594.375
440.4  1614.6875
440.3  1531.25
440.2  1504.375
440.1  1495
440  1476.875
439.9  1452.1875
439.8  1414.0625
439.7  1436.5625
439.6  1391.875
439.5  1389.375
439.4  1396.875
439.3  1394.0625
439.2  1327.8125
439.1  1392.8125
439  1364.0625
438.9  1320
438.8  1370.9375
438.7  1319.375
438.6  1321.5625
438.5  1326.25
438.4  1288.4375
438.3  1355.3125
