# Created by:        SpecsLab Prodigy, Version 4.60.2-r85849
#
# XY-Serializer Export Settings:
#   Comment Prefix:           #
#   Output meta data:         yes
#   Energy Axis:              Binding Energy
#   Count Rate:               Counts per Second
#   Separate Scan Data:       no
#   Separate Channel Data:    no
#   External Channel Data:    yes
#   Transmission Function:    no
#   ErrorBar:                 no
#   Operation Results:        yes
#   Time Zone Format:         UTC
#
# Group:             Spectrum Group
#
# Region:            C1s
# Acquisition Date:  09/13/22 21:18:18 UTC
# Analysis Method:   XPS
# Analyzer:          Phoibos 100 R6
# Analyzer Lens:     LargeArea:1.5kV
# Analyzer Slit:     1:0.2x20\B:open
# Scan Mode:         FixedAnalyzerTransmission
# Curves/Scan:       1
# Values/Curve:      151
# Dwell Time:        0.8
# Excitation Energy: 1486.61
# Binding Energy:    295
# Pass Energy:       30
# Bias Voltage:      90
# Detector Voltage:  2600
# Eff. Workfunction: 4.309
# Source:            X-Ray Dummy
# Comment:
#
# Cycle: 0
# Number of Scans: 40
#
# Cycle: 0, Curve: 0
# Acquisition Date: 09/13/22 21:18:18 UTC
#
# ColumnLabels: energy counts/s
#
295  930.875
294.9  928.5
294.8  924.15625
294.7  926.34375
294.6  947.65625
294.5  915.09375
294.4  942.5625
294.3  932.5625
294.2  924.875
294.1  918.625
294  916.125
293.9  914.09375
293.8  925.4375
293.7  914.15625
293.6  931.96875
293.5  929.375
293.4  929.53125
293.3  931.125
293.2  921.625
293.1  922.5
293  919.25
292.9  919.1875
292.8  935.1875
292.7  927.5625
292.6  930.0625
292.5  928.375
292.4  923.09375
292.3  920.15625
292.2  927.65625
292.1  932.75
292  930.0625
291.9  917.5625
291.8  940.28125
291.7  928.59375
291.6  932.09375
291.5  932.71875
291.4  937.84375
291.3  932.3125
291.2  939.21875
291.1  943.1875
291  936.9375
290.9  950.65625
290.8  947
290.7  945.1875
290.6  956.75
290.5  957.09375
290.4  964.40625
290.3  948
290.2  969.59375
290.1  968.4375
290  978.5
289.9  976.46875
289.8  983.15625
289.7  969.34375
289.6  993.96875
289.5  996.40625
289.4  990.0625
289.3  1000.8125
289.2  1026.375
289.1  997.71875
289  1028.4688
288.9  1022.4688
288.8  1031
288.7  1033.0313
288.6  1042.4688
288.5  1051.2188
288.4  1060.9063
288.3  1075.1563
288.2  1080.2188
288.1  1102.0625
288  1103.7813
287.9  1123.4688
287.8  1143.9063
287.7  1154.8125
287.6  1158.3438
287.5  1179.9375
287.4  1190.6875
287.3  1221.875
287.2  1226.4375
287.1  1235.5313
287  1248.875
286.9  1265.875
286.8  1285.75
286.7  1286.9375
286.6  1310
286.5  1308.5313
286.4  1326.5313
286.3  1322.4063
286.2  1341.375
286.1  1334.625
286  1350.125
285.9  1334.4063
285.8  1329.7188
285.7  1320.375
285.6  1301.8125
285.5  1285.375
285.4  1262.3438
285.3  1249.375
285.2  1225.3438
285.1  1214.4375
285  1155.9375
284.9  1146.4063
284.8  1107.5625
284.7  1085.1875
284.6  1062.625
284.5  1039.3125
284.4  1016.1563
284.3  1002.9688
284.2  980
284.1  963.59375
284  956.28125
283.9  952.8125
283.8  938.28125
283.7  932.28125
283.6  928.59375
283.5  915.71875
283.4  913.0625
283.3  919.75
283.2  912.53125
283.1  937.40625
283  914.28125
282.9  909.5625
282.8  916.375
282.7  913.21875
282.6  905.78125
282.5  912.5
282.4  903.0625
282.3  895.875
282.2  903.59375
282.1  902.28125
282  900.0625
281.9  902.125
281.8  903.96875
281.7  894.25
281.6  895.34375
281.5  905.09375
281.4  902.3125
281.3  899.5
281.2  894.90625
281.1  890.59375
281  899.15625
280.9  894.75
280.8  891.125
280.7  886.90625
280.6  901.3125
280.5  899.78125
280.4  895.28125
280.3  899.34375
280.2  910.3125
280.1  894.28125
280  899.03125

# Region:            Ba3d
# Acquisition Date:  09/13/22 18:46:09 UTC
# Analysis Method:   XPS
# Analyzer:          Phoibos 100 R6
# Analyzer Lens:     LargeArea:1.5kV
# Analyzer Slit:     1:0.2x20\B:open
# Scan Mode:         FixedAnalyzerTransmission
# Curves/Scan:       1
# Values/Curve:      121
# Dwell Time:        0.8
# Excitation Energy: 1486.61
# Binding Energy:    789
# Pass Energy:       30
# Bias Voltage:      90
# Detector Voltage:  2600
# Eff. Workfunction: 4.309
# Source:            X-Ray Dummy
# Comment:
#
# Cycle: 0
# Number of Scans: 20
#
# Cycle: 0, Curve: 0
# Acquisition Date: 09/13/22 18:46:09 UTC
#
# ColumnLabels: energy counts/s
#
789  4597.3125
788.9  4610.625
788.8  4588.875
788.7  4626.4375
788.6  4603
788.5  4607
788.4  4595.4375
788.3  4604.125
788.2  4597.875
788.1  4596.1875
788  4572.9375
787.9  4600.625
787.8  4614.1875
787.7  4591.9375
787.6  4590.5625
787.5  4613.625
787.4  4574.25
787.3  4611.875
787.2  4584.375
787.1  4612.5
787  4618.625
786.9  4595.9375
786.8  4587.125
786.7  4618.125
786.6  4624.5625
786.5  4592.0625
786.4  4601
786.3  4591.0625
786.2  4611.625
786.1  4598.125
786  4609.75
785.9  4609.4375
785.8  4595.9375
785.7  4594.5625
785.6  4614.6875
785.5  4594.5625
785.4  4585.4375
785.3  4607.3125
785.2  4609.75
785.1  4565.625
785  4613.125
784.9  4613.875
784.8  4585.625
784.7  4595.5
784.6  4588.5625
784.5  4597.625
784.4  4581.625
784.3  4616.9375
784.2  4620.875
784.1  4617.0625
784  4617.4375
783.9  4609.9375
783.8  4600.3125
783.7  4666.6875
783.6  4657.25
783.5  4636.9375
783.4  4636.75
783.3  4621.75
783.2  4654.4375
783.1  4643.375
783  4703.5625
782.9  4675.875
782.8  4688.6875
782.7  4733.5625
782.6  4739.5
782.5  4732.75
782.4  4710.3125
782.3  4816.4375
782.2  4806.9375
782.1  4815.9375
782  4831.75
781.9  4849
781.8  4853.875
781.7  4873.4375
781.6  4888.5
781.5  4880.5625
781.4  4887.875
781.3  4893.375
781.2  4890.9375
781.1  4889.0625
781  4848.625
780.9  4875.625
780.8  4849.4375
780.7  4851.25
780.6  4811.75
780.5  4796.75
780.4  4825.6875
780.3  4785.375
780.2  4720.9375
780.1  4724.4375
780  4726.5
779.9  4679.75
779.8  4655.6875
779.7  4664.5
779.6  4649.1875
779.5  4628.1875
779.4  4616.3125
779.3  4629.5625
779.2  4574.125
779.1  4613.0625
779  4594.5
778.9  4582.6875
778.8  4591.6875
778.7  4559.75
778.6  4600.5
778.5  4573.8125
778.4  4599.4375
778.3  4584.4375
778.2  4571.5625
778.1  4585
778  4582.25
777.9  4566.25
777.8  4529.5
777.7  4555
777.6  4599.9375
777.5  4570.625
777.4  4549.4375
777.3  4589.375
777.2  4548.0625
777.1  4564.5625
777  4563.5625

# Region:            Cl2p
# Acquisition Date:  09/13/22 18:47:40 UTC
# Analysis Method:   XPS
# Analyzer:          Phoibos 100 R6
# Analyzer Lens:     LargeArea:1.5kV
# Analyzer Slit:     1:0.2x20\B:open
# Scan Mode:         FixedAnalyzerTransmission
# Curves/Scan:       1
# Values/Curve:      111
# Dwell Time:        0.8
# Excitation Energy: 1486.61
# Binding Energy:    207
# Pass Energy:       30
# Bias Voltage:      90
# Detector Voltage:  2600
# Eff. Workfunction: 4.309
# Source:            X-Ray Dummy
# Comment:
#
# Cycle: 0
# Number of Scans: 20
#
# Cycle: 0, Curve: 0
# Acquisition Date: 09/13/22 18:47:40 UTC
#
# ColumnLabels: energy counts/s
#
207  853.6875
206.9  841.5
206.8  870.0625
206.7  872.9375
206.6  866.5
206.5  863.4375
206.4  873
206.3  870.3125
206.2  864.0625
206.1  873.4375
206  866
205.9  857.25
205.8  862.125
205.7  862.5625
205.6  854.8125
205.5  870.125
205.4  857.5625
205.3  867.9375
205.2  869.1875
205.1  866.6875
205  870.8125
204.9  854.6875
204.8  862.375
204.7  860.25
204.6  859.1875
204.5  857.625
204.4  850.875
204.3  865.75
204.2  860.3125
204.1  858.625
204  872.5625
203.9  856.6875
203.8  854.875
203.7  872.9375
203.6  859.875
203.5  847.625
203.4  866.5
203.3  857.4375
203.2  855.875
203.1  867.9375
203  875.25
202.9  858.875
202.8  874.25
202.7  865.5
202.6  872.75
202.5  860.3125
202.4  859.4375
202.3  881.4375
202.2  859.75
202.1  906.5625
202  867.5625
201.9  870.1875
201.8  874.6875
201.7  876.625
201.6  879.5625
201.5  876.1875
201.4  897.5
201.3  883.375
201.2  869.75
201.1  893.625
201  893.875
200.9  900.6875
200.8  891.8125
200.7  892.1875
200.6  891.6875
200.5  904.125
200.4  895.3125
200.3  906.8125
200.2  905.875
200.1  891.9375
200  910.5625
199.9  948.75
199.8  907.5625
199.7  900.8125
199.6  907.3125
199.5  909.75
199.4  909.9375
199.3  906.6875
199.2  911.3125
199.1  889
199  911.9375
198.9  922.9375
198.8  901.5
198.7  903.375
198.6  894.125
198.5  903.9375
198.4  890.8125
198.3  895.375
198.2  884.4375
198.1  891.25
198  879.3125
197.9  879.6875
197.8  894.6875
197.7  866.9375
197.6  869.0625
197.5  888.375
197.4  871.5
197.3  869.875
197.2  860.5
197.1  867.3125
197  871.6875
196.9  873.125
196.8  870.1875
196.7  869.4375
196.6  874.5625
196.5  856.6875
196.4  845.1875
196.3  868
196.2  856.5
196.1  857.1875
196  857.25

# Region:            In3d
# Acquisition Date:  09/13/22 16:04:15 UTC
# Analysis Method:   XPS
# Analyzer:          Phoibos 100 R6
# Analyzer Lens:     LargeArea:1.5kV
# Analyzer Slit:     1:0.2x20\B:open
# Scan Mode:         FixedAnalyzerTransmission
# Curves/Scan:       1
# Values/Curve:      231
# Dwell Time:        0.8
# Excitation Energy: 1486.61
# Binding Energy:    460
# Pass Energy:       30
# Bias Voltage:      90
# Detector Voltage:  2600
# Eff. Workfunction: 4.309
# Source:            X-Ray Dummy
# Comment:
#
# Cycle: 0
# Number of Scans: 5
#
# Cycle: 0, Curve: 0
# Acquisition Date: 09/13/22 16:04:15 UTC
#
# ColumnLabels: energy counts/s
#
460  2511.75
459.9  2489.25
459.8  2482
459.7  2462
459.6  2470.25
459.5  2458
459.4  2491.5
459.3  2438.25
459.2  2388.75
459.1  2383.75
459  2411
458.9  2402.75
458.8  2386
458.7  2380.5
458.6  2398.25
458.5  2359.75
458.4  2385.75
458.3  2356.25
458.2  2351
458.1  2343.25
458  2353
457.9  2382
457.8  2326.75
457.7  2335
457.6  2328.25
457.5  2372.75
457.4  2318
457.3  2361.25
457.2  2333.25
457.1  2382.75
457  2315.75
456.9  2367.75
456.8  2361.75
456.7  2360.5
456.6  2444
456.5  2419.5
456.4  2419
456.3  2432.25
456.2  2407.75
456.1  2533.25
456  2576.75
455.9  2570.25
455.8  2634.25
455.7  2694.75
455.6  2724.75
455.5  2819.5
455.4  2891
455.3  3002.5
455.2  3110.75
455.1  3189.5
455  3364.5
454.9  3484.75
454.8  3625
454.7  3848.75
454.6  3983.25
454.5  4207.75
454.4  4482.5
454.3  4746.5
454.2  5017.5
454.1  5234.75
454  5495.5
453.9  5825
453.8  6147
453.7  6455.5
453.6  6649
453.5  7001
453.4  7219.25
453.3  7451.25
453.2  7618.5
453.1  7735.5
453  7853.75
452.9  7849.75
452.8  7893
452.7  7759.75
452.6  7639.25
452.5  7388.25
452.4  7096.5
452.3  6724.75
452.2  6394.25
452.1  5931.25
452  5562.75
451.9  5069.25
451.8  4630
451.7  4249.25
451.6  3930.75
451.5  3501.25
451.4  3259.75
451.3  3008.25
451.2  2777
451.1  2584.75
451  2456.5
450.9  2352.5
450.8  2191
450.7  2139.25
450.6  2110.5
450.5  2114
450.4  1992
450.3  1942
450.2  1941
450.1  1930
450  1918.75
449.9  1907.25
449.8  1867.5
449.7  1884.75
449.6  1890.5
449.5  1901.5
449.4  1911.5
449.3  1872
449.2  1909.25
449.1  1951.75
449  1926
448.9  1965.75
448.8  1997.25
448.7  2062.75
448.6  2125.5
448.5  2149
448.4  2210.25
448.3  2290
448.2  2387.25
448.1  2424.75
448  2624
447.9  2704.75
447.8  2806.25
447.7  2968.75
447.6  3169.25
447.5  3339.75
447.4  3617
447.3  3778
447.2  4058.25
447.1  4318.75
447  4687.25
446.9  5028.25
446.8  5404
446.7  5683.25
446.6  6072.75
446.5  6560.25
446.4  6904.5
446.3  7348
446.2  7827.5
446.1  8231.75
446  8642.25
445.9  9011.25
445.8  9361
445.7  9656.75
445.6  9920.5
445.5  10022
445.4  10190
445.3  10227.5
445.2  10151.5
445.1  9955.5
445  9614
444.9  9375.75
444.8  8918.5
444.7  8358.5
444.6  7886.25
444.5  7304.5
444.4  6637.5
444.3  6062.25
444.2  5474.5
444.1  4916
444  4505.25
443.9  4032.75
443.8  3697
443.7  3317.75
443.6  3035
443.5  2881.5
443.4  2700.5
443.3  2548.5
443.2  2442.25
443.1  2341.5
443  2279
442.9  2263.25
442.8  2181.25
442.7  2085.75
442.6  2042.25
442.5  2029.25
442.4  1941
442.3  1925.75
442.2  1869
442.1  1783.25
442  1789.75
441.9  1753.25
441.8  1720.5
441.7  1719.25
441.6  1679.5
441.5  1639.75
441.4  1615.75
441.3  1589.25
441.2  1591.5
441.1  1585
441  1590.75
440.9  1555
440.8  1531.5
440.7  1556.75
440.6  1497
440.5  1459.25
440.4  1483.75
440.3  1463
440.2  1409
440.1  1420.5
440  1423.25
439.9  1392.5
439.8  1379
439.7  1389.5
439.6  1337.75
439.5  1301.25
439.4  1333.25
439.3  1316
439.2  1305
439.1  1278.75
439  1285.5
438.9  1273.5
438.8  1283.5
438.7  1252
438.6  1238.75
438.5  1242.5
438.4  1275.25
438.3  1266
438.2  1254.5
438.1  1271.5
438  1273
437.9  1276.25
437.8  1273.75
437.7  1307.5
437.6  1327
437.5  1333.75
437.4  1370.75
437.3  1345.5
437.2  1374.5
437.1  1413
437  1442.75

# Region:            Sn3d
# Acquisition Date:  09/13/22 16:07:22 UTC
# Analysis Method:   XPS
# Analyzer:          Phoibos 100 R6
# Analyzer Lens:     LargeArea:1.5kV
# Analyzer Slit:     1:0.2x20\B:open
# Scan Mode:         FixedAnalyzerTransmission
# Curves/Scan:       1
# Values/Curve:      231
# Dwell Time:        0.8
# Excitation Energy: 1486.61
# Binding Energy:    503
# Pass Energy:       30
# Bias Voltage:      90
# Detector Voltage:  2600
# Eff. Workfunction: 4.309
# Source:            X-Ray Dummy
# Comment:
#
# Cycle: 0
# Number of Scans: 5
#
# Cycle: 0, Curve: 0
# Acquisition Date: 09/13/22 16:07:22 UTC
#
# ColumnLabels: energy counts/s
#
503  3009.25
502.9  3023.75
502.8  3017.5
502.7  3007.25
502.6  3019
502.5  3008.75
502.4  3041.25
502.3  3062.5
502.2  3015
502.1  3062.75
502  3063.25
501.9  3052.75
501.8  2992.75
501.7  3019.75
501.6  3008
501.5  2989
501.4  2955
501.3  3008.75
501.2  2989.75
501.1  3006.5
501  2969
500.9  3019
500.8  3019
500.7  3008.75
500.6  2977.25
500.5  3007.75
500.4  3013.25
500.3  3009.5
500.2  3015.75
500.1  3021.75
500  3029.5
499.9  2956.75
499.8  3019.5
499.7  2969.75
499.6  3018
499.5  3054.75
499.4  3032.25
499.3  2979.5
499.2  3037.25
499.1  3058.75
499  2991
498.9  3039.75
498.8  3046.25
498.7  3099.75
498.6  3074.5
498.5  3075
498.4  3110.25
498.3  3117.75
498.2  3161.25
498.1  3070.25
498  3168.5
497.9  3171.25
497.8  3201
497.7  3241.5
497.6  3264
497.5  3280.25
497.4  3338.25
497.3  3355
497.2  3369.5
497.1  3425.75
497  3417.75
496.9  3482.5
496.8  3524
496.7  3561.75
496.6  3535
496.5  3552.75
496.4  3677.75
496.3  3673.25
496.2  3678.25
496.1  3733.5
496  3706.5
495.9  3714
495.8  3699.75
495.7  3789
495.6  3653.25
495.5  3661
495.4  3680.5
495.3  3594.25
495.2  3536
495.1  3528.75
495  3447.5
494.9  3437.25
494.8  3342.5
494.7  3318
494.6  3248
494.5  3262.25
494.4  3157.75
494.3  3080
494.2  3094
494.1  3032.25
494  2980
493.9  3011
493.8  2952.5
493.7  2949.25
493.6  3007.25
493.5  2921.75
493.4  2915.25
493.3  2931.75
493.2  2918.75
493.1  2944.25
493  2945
492.9  2897.5
492.8  2924.75
492.7  2920.5
492.6  2903
492.5  2877.75
492.4  2950.5
492.3  2883
492.2  2862.5
492.1  2896.5
492  2880
491.9  2905
491.8  2897
491.7  2865.25
491.6  2911.5
491.5  2960.5
491.4  2845.5
491.3  2900.25
491.2  2894.75
491.1  2927
491  2932.25
490.9  2933.5
490.8  2956.5
490.7  2946.75
490.6  2921.75
490.5  2901
490.4  2952.5
490.3  2989
490.2  2991.25
490.1  3018.5
490  2989.25
489.9  2991.5
489.8  3018.25
489.7  3019.25
489.6  3085
489.5  3077.25
489.4  3129.25
489.3  3174.75
489.2  3177.5
489.1  3238
489  3268.5
488.9  3308.75
488.8  3356
488.7  3419.75
488.6  3497.75
488.5  3608.75
488.4  3585.25
488.3  3564.75
488.2  3635.25
488.1  3676
488  3708.5
487.9  3768.75
487.8  3856.75
487.7  3887.75
487.6  3859.5
487.5  3913
487.4  3966.5
487.3  3954
487.2  3898
487.1  3901.5
487  3954
486.9  3858.25
486.8  3749.25
486.7  3697.25
486.6  3667.75
486.5  3624.25
486.4  3589.5
486.3  3460.75
486.2  3413.25
486.1  3281.5
486  3273.25
485.9  3200.5
485.8  3134.75
485.7  3084
485.6  3150.5
485.5  3054
485.4  3018
485.3  3017.75
485.2  2960.5
485.1  2950.75
485  2930.25
484.9  2965.75
484.8  2889.75
484.7  2953
484.6  2890.5
484.5  2906.25
484.4  2872
484.3  2888.75
484.2  2875.75
484.1  2890
484  2944.5
483.9  2891.75
483.8  2894
483.7  2871.25
483.6  2894
483.5  2941.25
483.4  2862.25
483.3  2825.75
483.2  2899
483.1  2885.75
483  2852.25
482.9  2907.25
482.8  2868
482.7  2881.75
482.6  2884.25
482.5  2857.75
482.4  2890.25
482.3  2901
482.2  2830.5
482.1  2855.75
482  2888
481.9  2864.75
481.8  2854.25
481.7  2911
481.6  2851
481.5  2881.25
481.4  2852.25
481.3  2864.25
481.2  2854
481.1  2858.5
481  2841.5
480.9  2845.75
480.8  2856.25
480.7  2892.75
480.6  2915.75
480.5  2843.25
480.4  2956.75
480.3  2839.5
480.2  2852
480.1  2857.75
480  2839.5

# Region:            O1s
# Acquisition Date:  09/13/22 22:14:42 UTC
# Analysis Method:   XPS
# Analyzer:          Phoibos 100 R6
# Analyzer Lens:     LargeArea:1.5kV
# Analyzer Slit:     1:0.2x20\B:open
# Scan Mode:         FixedAnalyzerTransmission
# Curves/Scan:       1
# Values/Curve:      111
# Dwell Time:        0.8
# Excitation Energy: 1486.61
# Binding Energy:    538
# Pass Energy:       30
# Bias Voltage:      90
# Detector Voltage:  2600
# Eff. Workfunction: 4.309
# Source:            X-Ray Dummy
# Comment:
#
# Cycle: 0
# Number of Scans: 50
#
# Cycle: 0, Curve: 0
# Acquisition Date: 09/13/22 22:14:42 UTC
#
# ColumnLabels: energy counts/s
#
538  3211.925
537.9  3224.4
537.8  3210.05
537.7  3203.35
537.6  3223.625
537.5  3207.175
537.4  3208.3
537.3  3196.525
537.2  3212.775
537.1  3223.475
537  3207.075
536.9  3218.7
536.8  3210.7
536.7  3213.8
536.6  3209.675
536.5  3228.375
536.4  3218.925
536.3  3224.425
536.2  3228.95
536.1  3239.6
536  3254
535.9  3250.475
535.8  3254.725
535.7  3269.825
535.6  3266.375
535.5  3267.45
535.4  3308.7
535.3  3306.55
535.2  3313.275
535.1  3325.125
535  3370.625
534.9  3381.05
534.8  3416.05
534.7  3433.275
534.6  3453.575
534.5  3485.975
534.4  3550.75
534.3  3565.075
534.2  3614.4
534.1  3647.125
534  3693.475
533.9  3719.325
533.8  3781.85
533.7  3834.9
533.6  3874.075
533.5  3931.8
533.4  3987.425
533.3  4005.55
533.2  4077.375
533.1  4128.875
533  4206.075
532.9  4244.7
532.8  4302.625
532.7  4371
532.6  4424.8
532.5  4531.325
532.4  4577.025
532.3  4670.775
532.2  4755.8
532.1  4826.325
532  4908.225
531.9  5000.225
531.8  5104.05
531.7  5162.3
531.6  5266.875
531.5  5365.975
531.4  5396.85
531.3  5464.975
531.2  5521.05
531.1  5521.075
531  5528.8
530.9  5522.275
530.8  5486.375
530.7  5417.45
530.6  5333.075
530.5  5206.9
530.4  5084.9
530.3  4915.3
530.2  4742.225
530.1  4548.175
530  4406.925
529.9  4249.9
529.8  4087.8
529.7  3940.275
529.6  3815.05
529.5  3676.625
529.4  3569.375
529.3  3489.05
529.2  3423.075
529.1  3356.7
529  3289.975
528.9  3271.125
528.8  3219
528.7  3193.975
528.6  3174.725
528.5  3159.675
528.4  3129.9
528.3  3126.3
528.2  3129.675
528.1  3130.75
528  3102.95
527.9  3107.525
527.8  3109.75
527.7  3086.85
527.6  3082.45
527.5  3084.675
527.4  3071.475
527.3  3069.375
527.2  3071.65
527.1  3089.45
527  3078.025

# Region:            Si2p
# Acquisition Date:  09/13/22 22:16:05 UTC
# Analysis Method:   XPS
# Analyzer:          Phoibos 100 R6
# Analyzer Lens:     LargeArea:1.5kV
# Analyzer Slit:     1:0.2x20\B:open
# Scan Mode:         FixedAnalyzerTransmission
# Curves/Scan:       1
# Values/Curve:      101
# Dwell Time:        0.8
# Excitation Energy: 1486.61
# Binding Energy:    110
# Pass Energy:       30
# Bias Voltage:      90
# Detector Voltage:  2600
# Eff. Workfunction: 4.309
# Source:            X-Ray Dummy
# Comment:
#
# Cycle: 0
# Number of Scans: 50
#
# Cycle: 0, Curve: 0
# Acquisition Date: 09/13/22 22:16:05 UTC
#
# ColumnLabels: energy counts/s
#
110  850.375
109.9  852.725
109.8  856.875
109.7  868.025
109.6  855.625
109.5  856.7
109.4  857.7
109.3  851.025
109.2  855.525
109.1  859.4
109  863.275
108.9  854.925
108.8  849.925
108.7  854.325
108.6  853.3
108.5  858.675
108.4  862.775
108.3  857.85
108.2  850.25
108.1  852.125
108  850.125
107.9  854.85
107.8  854.075
107.7  858.3
107.6  858.75
107.5  856.725
107.4  861.55
107.3  857.375
107.2  863.925
107.1  855.2
107  864.975
106.9  864.625
106.8  855.95
106.7  865.95
106.6  868.75
106.5  855.875
106.4  857.3
106.3  863.4
106.2  863.575
106.1  862.95
106  862.325
105.9  866.275
105.8  869.425
105.7  869.35
105.6  870.025
105.5  868.625
105.4  866.6
105.3  868.925
105.2  868.425
105.1  874.525
105  872.2
104.9  875.95
104.8  871.3
104.7  879.775
104.6  894.85
104.5  880.2
104.4  877.6
104.3  873.55
