# Created by:        SpecsLab Prodigy, Version 4.60.2-r85849
#
# XY-Serializer Export Settings:
#   Comment Prefix:           #
#   Output meta data:         yes
#   Energy Axis:              Binding Energy
#   Count Rate:               Counts per Second
#   Separate Scan Data:       no
#   Separate Channel Data:    no
#   External Channel Data:    yes
#   Transmission Function:    no
#   ErrorBar:                 no
#   Operation Results:        yes
#   Time Zone Format:         UTC
#
# Group:             Spectrum Group
#
# Region:            O1s
# Acquisition Date:  08/25/22 00:24:06 UTC
# Analysis Method:   XPS
# Analyzer:          Phoibos 100 R6
# Analyzer Lens:     LargeArea:1.5kV
# Analyzer Slit:     1:0.2x20\B:open
# Scan Mode:         FixedAnalyzerTransmission
# Curves/Scan:       1
# Values/Curve:      141
# Dwell Time:        0.8
# Excitation Energy: 1486.61
# Binding Energy:    541
# Pass Energy:       30
# Bias Voltage:      90
# Detector Voltage:  2600
# Eff. Workfunction: 4.309
# Source:            X-Ray Dummy
# Comment:
#
# Cycle: 0
# Number of Scans: 40
#
# Cycle: 0, Curve: 0
# Acquisition Date: 08/25/22 00:24:06 UTC
#
# ColumnLabels: energy counts/s
#
541  3832.1563
540.9  3836.75
540.8  3807.1875
540.7  3804.4688
540.6  3813.7813
540.5  3836.9688
540.4  3794.5625
540.3  3808.9375
540.2  3803.7813
540.1  3813.7188
540  3786.9375
539.9  3790.0938
539.8  3816.8438
539.7  3783.7188
539.6  3791.4375
539.5  3806.0938
539.4  3794.0938
539.3  3785.5
539.2  3799.5
539.1  3786.6875
539  3784.3438
538.9  3781.75
538.8  3794.5
538.7  3778.2188
538.6  3789.625
538.5  3777.7188
538.4  3765.75
538.3  3785.5625
538.2  3772.2188
538.1  3772.9375
538  3797.8438
537.9  3773.25
537.8  3771.4063
537.7  3789.5625
537.6  3742.5313
537.5  3736.375
537.4  3766.2813
537.3  3761.6563
537.2  3765
537.1  3749.375
537  3737.9375
536.9  3754.4688
536.8  3732.4688
536.7  3747.6875
536.6  3709.625
536.5  3739.5
536.4  3752.25
536.3  3741.0625
536.2  3743.6875
536.1  3740.7188
536  3743.5313
535.9  3739.5313
535.8  3726.375
535.7  3730.7813
535.6  3738.0625
535.5  3723.8438
535.4  3766.25
535.3  3734.8125
535.2  3727.75
535.1  3762.4063
535  3755.5313
534.9  3766.4375
534.8  3774.0313
534.7  3776.625
534.6  3794.5313
534.5  3801.6563
534.4  3810.5938
534.3  3839.0313
534.2  3839.4063
534.1  3865.5313
534  3885.1563
533.9  3906.375
533.8  3951.125
533.7  3974.7813
533.6  4018.9063
533.5  4055.75
533.4  4087.5625
533.3  4159.4063
533.2  4168.6563
533.1  4230.4688
533  4323.0938
532.9  4356.625
532.8  4431.375
532.7  4519.875
532.6  4571.25
532.5  4674.0938
532.4  4775.5
532.3  4859.0625
532.2  4995.6563
532.1  5096.25
532  5220.9688
531.9  5384.3438
531.8  5536.375
531.7  5688.4063
531.6  5870.75
531.5  6044.7188
531.4  6233.625
531.3  6426.2188
531.2  6624.4063
531.1  6807.8438
531  6980.875
530.9  7180.9063
530.8  7333.9375
530.7  7504.0625
530.6  7604.4375
530.5  7676.3125
530.4  7756.6875
530.3  7799.1563
530.2  7765.4063
530.1  7722.75
530  7602.9375
529.9  7477.6875
529.8  7278.0938
529.7  7086.5
529.6  6846.4063
529.5  6598.6875
529.4  6356.5938
529.3  6093.625
529.2  5802.0625
529.1  5539.5625
529  5299.0625
528.9  5082.875
528.8  4842.8438
528.7  4670.1563
528.6  4496.0938
528.5  4355.8125
528.4  4235.5938
528.3  4108.25
528.2  4005.0313
528.1  3935.5313
528  3877.4688
527.9  3816.9375
527.8  3795.5
527.7  3766.9688
527.6  3721.1563
527.5  3693.125
527.4  3667.25
527.3  3668.75
527.2  3626.4063
527.1  3656.7188
527  3618.75

# Region:            overview
# Acquisition Date:  08/24/22 16:45:33 UTC
# Analysis Method:   XPS
# Analyzer:          Phoibos 100 R6
# Analyzer Lens:     MediumArea:1.5kV
# Analyzer Slit:     1:0.2x20\B:open
# Scan Mode:         FixedAnalyzerTransmission
# Curves/Scan:       1
# Values/Curve:      1205
# Dwell Time:        0.2
# Excitation Energy: 1486.61
# Binding Energy:    1200
# Pass Energy:       50
# Bias Voltage:      90
# Detector Voltage:  2600
# Eff. Workfunction: 4.309
# Source:            X-Ray Dummy
# Comment:
#
# Cycle: 0
# Number of Scans: 1
#
# Cycle: 0, Curve: 0
# Acquisition Date: 08/24/22 16:45:33 UTC
#
# ColumnLabels: energy counts/s
#
1200  10760
1199  10410
1198  10715
1197  10295
1196  10850
1195  10715
1194  10490
1193  10345
1192  10650
1191  10135
1190  10495
1189  10270
1188  10530
1187  9950
1186  10050
1185  10225
1184  9655
1183  9910
1182  9700
1181  9655
1180  9915
1179  9110
1178  9535
1177  9415
1176  9470
1175  9565
1174  9685
1173  9440
1172  9510
1171  9420
1170  9190
1169  9740
1168  9365
1167  9390
1166  9810
1165  9620
1164  8935
1163  9735
1162  9610
1161  9160
1160  10120
1159  9260
1158  9595
1157  9620
1156  9920
1155  10110
1154  9375
1153  9495
1152  9450
1151  9120
1150  9625
1149  9475
1148  9175
1147  9410
1146  9120
1145  9195
1144  8740
1143  8695
1142  8720
1141  8735
1140  7885
1139  8095
1138  7835
1137  8330
1136  7915
1135  8035
1134  8005
1133  8325
1132  7430
1131  7685
1130  7605
1129  7490
1128  7570
1127  7250
1126  7200
1125  7230
1124  6945
1123  7130
1122  7550
1121  7430
1120  7180
1119  6975
1118  7290
1117  7120
1116  7235
1115  7260
1114  7000
1113  7155
1112  7240
1111  7555
1110  7145
1109  7445
1108  7340
1107  7190
1106  7005
1105  7425
1104  7160
1103  6805
1102  6985
1101  7090
1100  7095
1099  7220
1098  7235
1097  7285
1096  7840
1095  7445
1094  7720
1093  7705
1092  8190
1091  7900
1090  8670
1089  9235
1088  10280
1087  10930
1086  10720
1085  10665
1084  9310
1083  8940
1082  8370
1081  8245
1080  8840
1079  8675
1078  7810
1077  6805
1076  5925
1075  5580
1074  5655
1073  5565
1072  5770
1071  5765
1070  5765
1069  5610
1068  5610
1067  5750
1066  5420
1065  5765
1064  5520
1063  5825
1062  5705
1061  5440
1060  5760
1059  5320
1058  5385
1057  5150
1056  5165
1055  5050
1054  5100
1053  5430
1052  5125
1051  5035
1050  4965
1049  4670
1048  4925
1047  5070
1046  4485
1045  4865
1044  4880
1043  4815
1042  4680
1041  4660
1040  4810
1039  4905
1038  4910
1037  4700
1036  4540
1035  4630
1034  4500
1033  4735
1032  4570
1031  4495
1030  4760
1029  4535
1028  4650
1027  4710
1026  4720
1025  4650
1024  5025
1023  4810
1022  4835
1021  4540
1020  4870
1019  4675
1018  4800
1017  4345
1016  5065
1015  4745
1014  5020
1013  4760
1012  4665
1011  4620
1010  4720
1009  4705
1008  4885
1007  4975
1006  5000
1005  4530
1004  4500
1003  4530
1002  4380
1001  4925
1000  4580
999  4570
998  4885
997  4595
996  4965
995  4930
994  4935
993  4930
992  4875
991  4850
990  4965
989  4945
988  4720
987  4735
986  4900
985  4660
984  4490
983  4600
982  4690
981  4740
980  4660
979  4870
978  5240
977  5205
976  5780
975  5855
974  6065
973  5650
972  5165
971  4935
970  4850
969  4400
968  4490
967  4325
966  4325
965  4390
964  4010
963  4225
962  4240
961  3950
960  4175
959  4210
958  4285
957  4390
956  4190
955  3790
954  4195
953  4325
952  4120
951  4280
950  4295
949  4095
948  4325
947  4095
946  4330
945  4040
944  4485
943  3930
942  4255
941  4085
940  4180
939  4090
938  4395
937  4375
936  4105
935  4305
934  4135
933  3885
932  4200
931  4160
930  4310
929  4245
928  4165
927  4340
926  4085
925  4440
924  4330
923  4230
922  4285
921  4070
920  3980
919  4175
918  4055
917  4170
916  4000
915  4090
914  4300
913  4045
912  4230
911  4160
910  4335
909  4130
908  4015
907  4135
906  4255
905  4265
904  4300
903  4225
902  4070
901  4335
900  4100
899  4330
898  4465
897  4160
896  4315
895  4340
894  4170
893  4165
892  4405
891  4290
890  4225
889  4065
888  4350
887  4005
886  4035
885  4280
884  4175
883  4110
882  4525
881  4005
880  4105
879  4195
878  4175
877  4465
876  4285
875  3745
874  4325
873  4265
872  3965
871  4130
870  4250
869  4330
868  4200
867  4465
866  4135
865  4065
864  4270
863  4220
862  4215
861  4110
860  4355
859  4550
858  4320
857  4250
856  4175
855  4390
854  4150
853  4185
852  4430
851  4310
850  4350
849  4425
848  4355
847  4315
846  4380
845  4380
844  4300
843  4340
842  4340
841  4490
840  4125
839  4540
838  4420
837  4255
836  4265
835  4115
834  4425
833  4490
832  4760
831  4705
830  4780
829  4730
828  4885
827  4950
826  4610
825  4780
824  4615
823  4525
822  4700
821  4525
820  4465
819  4720
818  4725
817  4315
816  4335
815  4680
814  4540
813  4400
812  4270
811  4350
810  4245
809  4145
808  4185
807  4450
806  4150
805  4005
804  4455
803  4335
802  4510
801  4225
800  4430
799  4315
798  4235
797  4335
796  4405
795  4610
794  4535
793  4255
792  4395
791  4340
790  4275
789  4530
788  4520
787  4255
786  4415
785  4160
784  4280
783  4395
782  4250
781  4465
780  4110
779  4255
778  4225
777  4470
776  4140
775  4395
774  4195
773  4490
772  4560
771  4440
770  3960
769  4310
768  4530
767  4230
766  4330
765  4535
764  4420
763  4275
762  4515
761  4670
760  4405
759  4690
758  4660
757  4425
756  4670
755  4430
754  4470
753  4375
752  4450
751  4660
750  4395
749  4495
748  4715
747  4590
746  4345
745  4545
744  4585
743  4440
742  4630
741  4295
740  4405
739  4750
738  4635
737  4595
736  4585
735  4590
734  4455
733  4445
732  4570
731  4575
730  4775
729  4550
728  4900
727  4505
726  4925
725  4620
724  4820
723  4870
722  4845
721  4755
720  4895
719  5045
718  4840
717  4915
716  5290
715  4940
714  4845
713  4750
712  4525
711  4675
710  4710
709  4715
708  5010
707  5230
706  5505
705  6150
704  6735
703  6225
702  5945
701  5195
700  5105
699  4635
698  4935
697  4700
696  4545
695  4530
694  4870
693  4800
692  4715
691  4815
690  4540
689  4415
688  4590
687  4245
686  4820
685  4695
684  4535
683  4735
682  4595
681  4710
680  4515
679  4580
678  4460
677  4675
676  4550
675  4545
674  4565
673  4645
672  4510
671  4790
670  5135
669  5300
668  6285
667  7565
666  8635
665  8040
664  7180
663  5900
662  4950
661  4365
660  4355
659  4405
658  4490
657  4240
656  4405
655  4295
654  4440
653  4100
652  4000
651  4085
650  3880
649  3940
648  3830
647  3940
646  3890
645  3985
644  3785
643  3795
642  4000
641  4225
640  3975
639  3970
638  3960
637  3950
636  3895
635  3855
634  4095
633  4160
632  3735
631  3730
630  3805
629  3910
628  4055
627  3730
626  3775
625  4025
624  3970
623  3940
622  3915
621  3865
620  3885
619  3780
618  3825
617  4260
616  4165
615  3770
614  3885
613  4060
612  3930
611  3995
610  4130
609  4290
608  3855
607  3920
606  4125
605  3835
604  4100
603  3825
602  4210
601  3960
600  4140
599  4025
598  4130
597  4270
596  4075
595  4145
594  3925
593  4140
592  4170
591  4190
590  4070
589  4315
588  4220
587  3935
586  4325
585  4240
584  4120
583  4085
582  4265
581  4000
580  4335
579  4225
578  4155
577  4330
576  4290
575  4305
574  4075
573  4175
572  4265
571  4555
570  4145
569  4380
568  4380
567  4315
566  4270
565  4465
564  4075
563  3870
562  4335
561  4250
560  3955
559  4560
558  4445
557  4445
556  4130
555  4470
554  4565
553  4240
552  4500
551  4495
550  4385
549  5015
548  4520
547  4615
546  4640
545  4515
544  4615
543  4085
542  4480
541  4350
540  4015
539  4310
538  4160
537  4170
536  4130
535  4565
534  4370
533  4745
532  5585
531  7805
530  8550
529  6635
528  4920
527  4185
526  4070
525  4105
524  4115
523  4280
522  4460
521  4340
520  4320
519  4265
518  4155
517  3995
516  4095
515  3915
514  4150
513  4130
512  3900
511  4250
510  4235
509  4350
508  4070
507  4020
506  4195
505  4085
504  3850
503  4235
502  4200
501  4140
500  4170
499  4070
498  4210
497  4370
496  4620
495  5310
494  4495
493  4335
492  4060
491  4035
490  4000
489  4245
488  4945
487  5190
486  5130
485  4735
484  4225
483  4095
482  4055
481  3935
480  4075
479  4025
478  3770
477  4210
476  3780
475  4135
474  4095
473  4270
472  4345
471  4220
470  4330
469  4490
468  4205
467  4485
466  4265
465  4260
464  4545
463  4215
462  4070
461  4125
460  4295
459  3870
458  4010
457  3895
456  4005
455  4470
454  6705
453  12305
452  15540
451  10210
450  4915
449  3645
448  3375
447  5070
446  10425
445  18450
444  18335
443  9520
442  4665
441  2680
440  2440
439  2290
438  1810
437  2060
436  2385
435  2965
434  3035
433  2565
432  2250
431  1805
430  1610
429  1315
428  1575
427  1435
426  1625
425  1405
424  1535
423  1505
422  1475
421  1425
420  1435
419  1390
418  1460
417  1430
416  1305
415  1395
414  1435
413  1475
412  1330
411  1365
410  1290
409  1325
408  1380
407  1370
406  1485
405  1290
404  1325
403  1370
402  1425
401  1395
400  1340
399  1340
398  1345
397  1420
396  1240
395  1365
394  1385
393  1485
392  1425
391  1290
390  1430
389  1275
388  1555
387  1450
386  1360
385  1410
384  1160
383  1450
382  1415
381  1420
380  1670
379  1405
378  1340
377  1440
376  1560
375  1535
374  1445
373  1405
372  1440
371  1355
370  1350
369  1370
368  1350
367  1215
366  1250
365  1225
364  1285
363  1300
362  1300
361  1210
360  1350
359  1280
358  1210
357  1220
356  1180
355  1140
354  1365
353  1410
352  1345
351  1265
350  1280
349  1335
348  1350
347  1210
346  1315
345  1415
344  1305
343  1265
342  1405
341  1230
340  1345
339  1425
338  1325
337  1305
336  1285
335  1215
334  1225
333  1370
332  1440
331  1160
330  1350
329  1305
328  1330
327  1390
326  1215
325  1365
324  1310
323  1135
322  1255
321  1355
320  1260
319  1275
318  1250
317  1505
316  1310
315  1275
314  1235
313  1405
312  1375
311  1385
310  1365
309  1265
308  1215
307  1290
306  1450
305  1370
304  1310
303  1145
302  1230
301  1380
300  1200
299  1405
298  1330
297  1410
296  1280
295  1555
294  1380
293  1410
292  1250
291  1460
290  1380
289  1370
288  1355
287  1380
286  1255
285  1370
284  1340
283  1405
282  1410
281  1325
280  1360
279  1325
278  1350
277  1345
276  1345
275  1395
274  1455
273  1425
272  1315
271  1285
270  1240
269  1430
268  1305
267  1265
266  1540
265  1280
264  1455
263  1315
262  1255
261  1455
260  1250
259  1310
258  1245
257  1430
256  1350
255  1320
254  1375
253  1405
252  1370
251  1355
250  1425
249  1410
248  1270
247  1440
246  1335
245  1405
244  1370
243  1615
242  1415
241  1445
240  1350
239  1360
238  1470
237  1270
236  1480
235  1485
234  1500
233  1380
232  1490
231  1405
230  1400
229  1395
228  1340
227  1405
226  1380
225  1415
224  1300
223  1465
222  1360
221  1360
220  1195
219  1285
218  1265
217  1360
216  1420
215  1590
214  1340
213  1390
212  1360
211  1525
210  1350
209  1400
208  1435
207  1385
206  1445
205  1370
204  1285
203  1460
202  1445
201  1150
200  1475
199  1420
198  1410
197  1600
196  1530
195  1510
194  1395
193  1435
192  1305
191  1375
190  1470
189  1650
188  1300
187  1390
186  1330
185  1465
184  1515
183  1450
182  1415
181  1350
180  1450
179  1520
178  1390
177  1460
176  1325
175  1450
174  1440
173  1480
172  1380
171  1435
170  1405
169  1585
168  1455
167  1635
166  1525
165  1335
164  1565
163  1360
162  1335
161  1345
160  1460
159  1415
158  1455
157  1625
156  1430
155  1520
154  1445
153  1630
152  1530
151  1345
150  1360
149  1415
148  1290
147  1500
146  1435
145  1490
144  1540
143  1500
142  1515
141  1565
140  1390
139  1475
138  1560
137  1540
136  1505
135  1505
134  1285
133  1435
132  1450
131  1540
130  1485
129  1445
128  1600
127  1670
126  1680
125  1800
124  1600
123  1810
122  1735
121  1580
120  1530
119  1590
118  1565
117  1430
116  1450
115  1390
114  1515
113  1570
112  1440
111  1460
110  1450
109  1460
108  1390
107  1425
106  1735
105  1435
104  1510
103  1690
102  1370
101  1600
100  1705
99  1470
98  1380
97  1585
96  1480
95  1540
94  1530
93  1570
92  1545
91  1695
90  1700
89  1625
88  1800
87  1625
86  1945
85  1690
84  1640
83  1935
82  1830
81  1810
80  1850
79  2085
78  1740
77  1625
76  1670
75  1625
74  1665
73  1560
72  1390
71  1330
70  1380
69  1285
68  1250
67  1215
66  1135
65  1290
64  1235
63  1175
62  1095
61  1105
60  1060
59  1130
58  1145
57  1205
56  1045
55  1085
54  1320
53  1025
52  1050
51  990
50  1125
49  1195
48  1130
47  1180
46  1150
45  1090
44  1160
43  1125
42  1260
41  1235
40  1280
39  1205
38  1210
37  1290
36  1180
35  1205
34  1245
33  1095
32  1170
31  1265
30  940
29  1130
28  1430
27  1240
26  1305
25  1225
24  1190
23  1405
22  1225
21  1505
20  2385
19  3410
18  4260
17  3170
16  1665
15  985
14  855
13  810
12  820
11  820
10  880
9  1045
8  1050
7  1025
6  1045
5  1020
4  840
3  740
2  670
1  705
-2.2737368e-013  685
-1  690
-2  665
-3  695
-4  605

# Region:            C1s
# Acquisition Date:  08/25/22 01:02:59 UTC
# Analysis Method:   XPS
# Analyzer:          Phoibos 100 R6
# Analyzer Lens:     LargeArea:1.5kV
# Analyzer Slit:     1:0.2x20\B:open
# Scan Mode:         FixedAnalyzerTransmission
# Curves/Scan:       1
# Values/Curve:      151
# Dwell Time:        0.8
# Excitation Energy: 1486.61
# Binding Energy:    295
# Pass Energy:       30
# Bias Voltage:      90
# Detector Voltage:  2600
# Eff. Workfunction: 4.309
# Source:            X-Ray Dummy
# Comment:
#
# Cycle: 0
# Number of Scans: 50
#
# Cycle: 0, Curve: 0
# Acquisition Date: 08/25/22 01:02:59 UTC
#
# ColumnLabels: energy counts/s
#
295  977.575
294.9  978.425
294.8  981.2
294.7  980.575
294.6  985.95
294.5  972.4
294.4  993.375
294.3  981.9
294.2  989.325
294.1  978.725
294  992.65
293.9  982.525
293.8  984.925
293.7  983.225
293.6  998.875
293.5  985.325
293.4  987.7
293.3  994.025
293.2  987.975
293.1  993.825
293  992.325
292.9  985
292.8  989.575
292.7  985
292.6  995.525
292.5  988.325
292.4  979.3
292.3  987.125
292.2  981.25
292.1  984.25
292  983.8
291.9  989.025
291.8  981.275
291.7  987.625
291.6  977.625
291.5  972.025
291.4  984.1
291.3  988.025
291.2  978.85
291.1  993.125
291  980.6
290.9  971.275
290.8  970
290.7  982.175
290.6  987.55
290.5  978.175
290.4  973.875
290.3  985.55
290.2  990.25
290.1  980.65
290  983.225
289.9  991.475
289.8  981.3
289.7  981.7
289.6  992.875
289.5  990.125
289.4  983.525
289.3  984.425
289.2  989.575
289.1  984.375
289  988.825
288.9  988.925
288.8  988.875
288.7  984.275
288.6  986.55
288.5  985.525
288.4  979.45
288.3  989.7
288.2  981.075
288.1  995
288  984.775
287.9  983.65
287.8  982.075
287.7  993.925
287.6  985.275
287.5  976.725
287.4  984.7
287.3  986.55
287.2  983.65
287.1  990.5
287  989.2
286.9  985.65
286.8  996.375
286.7  991.625
286.6  982.1
286.5  995.35
286.4  990.825
286.3  994.65
286.2  991.4
286.1  989.3
286  990.6
285.9  1002.875
285.8  1003.525
285.7  996.7
285.6  1002.575
285.5  1001.125
285.4  998.15
285.3  1001.2
285.2  1000.2
285.1  1006.4
285  1005.675
284.9  1005.625
284.8  1005.3
284.7  1000.95
284.6  998.6
284.5  1000.975
284.4  1001.3
284.3  997.825
284.2  994.65
284.1  1000.1
284  1008.45
283.9  993.575
283.8  980.725
283.7  990.45
283.6  985.5
283.5  995.375
283.4  987.35
283.3  986.85
283.2  991.45
283.1  990.975
283  974.375
282.9  981.925
282.8  984.4
282.7  977.85
282.6  977.375
282.5  983.15
282.4  978.575
282.3  977.85
282.2  980.75
282.1  978.875
282  970.6
281.9  980.45
281.8  966.725
281.7  969.45
281.6  973
281.5  974.325
281.4  980.825
281.3  971.95
281.2  979.375
281.1  980.275
281  976.525
280.9  971.35
280.8  978.625
280.7  975.175
280.6  989.85
280.5  967.95
280.4  977.975
280.3  985.45
280.2  971.825
280.1  976.725
280  978.825

# Region:            N1s
# Acquisition Date:  08/25/22 01:04:38 UTC
# Analysis Method:   XPS
# Analyzer:          Phoibos 100 R6
# Analyzer Lens:     LargeArea:1.5kV
# Analyzer Slit:     1:0.2x20\B:open
# Scan Mode:         FixedAnalyzerTransmission
# Curves/Scan:       1
# Values/Curve:      121
# Dwell Time:        0.8
# Excitation Energy: 1486.61
# Binding Energy:    409
# Pass Energy:       30
# Bias Voltage:      90
# Detector Voltage:  2600
# Eff. Workfunction: 4.309
# Source:            X-Ray Dummy
# Comment:
#
# Cycle: 0
# Number of Scans: 50
#
# Cycle: 0, Curve: 0
# Acquisition Date: 08/25/22 01:04:38 UTC
#
# ColumnLabels: energy counts/s
#
409  1096.925
408.9  1107.65
408.8  1112.725
408.7  1103.15
408.6  1091.925
408.5  1097.15
408.4  1110.5
408.3  1115.25
408.2  1114.225
408.1  1119.375
408  1115.825
407.9  1120.05
407.8  1113.075
407.7  1122.75
407.6  1120.725
